['COUNTER', 'AF3', 'F7', 'F3', 'FC5', 'T7', 'P7', 'O1', 'O2', 'P8', 'T8', 'FC6', 'F4', 'F8', 'AF4', 'GYROX', 'GYROY', 'TIMESTAMP', 'FUNC_ID', 'FUNC_VALUE', 'MARKER', 'SYNC_SIGNAL']
114.0 , 3954.35897436 , 4388.20512821 , 4319.48717949 , 4171.79487179 , 4340.51282051 , 4537.94871795 , 4390.25641026 , 4174.87179487 , 4356.41025641 , 3818.46153846 , 3793.84615385 , 4259.48717949 , 4169.74358974 , 4315.8974359 , 1660.0 , 1696.0 , 10.311 , 0.0 , 0.0 , 0.0 , 0.0 , 

115.0 , 3958.97435897 , 4391.79487179 , 4305.64102564 , 4173.33333333 , 4338.97435897 , 4537.43589744 , 4393.33333333 , 4173.84615385 , 4352.30769231 , 3818.46153846 , 3787.69230769 , 4248.71794872 , 4169.23076923 , 4321.02564103 , 1661.0 , 1698.0 , 10.327 , 0.0 , 0.0 , 0.0 , 0.0 , 

116.0 , 3959.48717949 , 4395.38461538 , 4302.56410256 , 4174.35897436 , 4340.0 , 4540.51282051 , 4387.17948718 , 4175.38461538 , 4352.30769231 , 3818.46153846 , 3786.66666667 , 4240.0 , 4171.28205128 , 4321.02564103 , 1659.0 , 1697.0 , 10.327 , 0.0 , 0.0 , 0.0 , 0.0 , 

117.0 , 3964.1025641 , 4408.71794872 , 4292.82051282 , 4174.87179487 , 4343.07692308 , 4538.97435897 , 4382.05128205 , 4174.35897436 , 4358.97435897 , 3818.46153846 , 3788.71794872 , 4237.94871795 , 4175.8974359 , 4321.02564103 , 1657.0 , 1700.0 , 10.343 , 0.0 , 0.0 , 0.0 , 0.0 , 

118.0 , 3966.15384615 , 4421.02564103 , 4270.25641026 , 4177.94871795 , 4345.12820513 , 4540.0 , 4384.1025641 , 4168.20512821 , 4361.53846154 , 3818.46153846 , 3783.07692308 , 4231.79487179 , 4178.97435897 , 4323.07692308 , 1659.0 , 1698.0 , 10.343 , 0.0 , 0.0 , 0.0 , 0.0 , 

119.0 , 3966.66666667 , 4434.35897436 , 4238.97435897 , 4173.84615385 , 4343.58974359 , 4540.51282051 , 4386.15384615 , 4169.74358974 , 4356.92307692 , 3818.46153846 , 3772.82051282 , 4216.92307692 , 4183.58974359 , 4330.76923077 , 1660.0 , 1698.0 , 10.358 , 0.0 , 0.0 , 0.0 , 0.0 , 

120.0 , 3971.28205128 , 4448.20512821 , 4213.84615385 , 4167.17948718 , 4342.05128205 , 4539.48717949 , 4389.74358974 , 4177.43589744 , 4354.35897436 , 3818.46153846 , 3767.69230769 , 4204.1025641 , 4189.74358974 , 4337.43589744 , 1660.0 , 1697.0 , 10.358 , 0.0 , 0.0 , 0.0 , 0.0 , 

121.0 , 3977.94871795 , 4456.92307692 , 4194.35897436 , 4169.23076923 , 4345.64102564 , 4546.15384615 , 4393.84615385 , 4177.43589744 , 4355.8974359 , 3817.94871795 , 3764.61538462 , 4196.41025641 , 4193.84615385 , 4336.92307692 , 1659.0 , 1699.0 , 10.374 , 0.0 , 0.0 , 0.0 , 0.0 , 

122.0 , 3983.07692308 , 4468.20512821 , 4163.07692308 , 4169.23076923 , 4351.79487179 , 4555.38461538 , 4395.38461538 , 4172.30769231 , 4356.41025641 , 3818.46153846 , 3753.84615385 , 4181.53846154 , 4195.8974359 , 4334.35897436 , 1659.0 , 1698.0 , 10.374 , 0.0 , 0.0 , 0.0 , 0.0 , 

123.0 , 3979.48717949 , 4474.35897436 , 4134.35897436 , 4165.12820513 , 4352.82051282 , 4557.43589744 , 4398.46153846 , 4167.17948718 , 4359.48717949 , 3819.48717949 , 3744.1025641 , 4168.71794872 , 4194.35897436 , 4333.84615385 , 1659.0 , 1700.0 , 10.389 , 0.0 , 0.0 , 0.0 , 0.0 , 

124.0 , 3994.87179487 , 4471.79487179 , 4128.20512821 , 4163.07692308 , 4347.69230769 , 4553.33333333 , 4395.8974359 , 4166.66666667 , 4366.15384615 , 3816.92307692 , 3751.79487179 , 4172.82051282 , 4200.0 , 4340.51282051 , 1659.0 , 1697.0 , 10.389 , 0.0 , 0.0 , 0.0 , 0.0 , 

125.0 , 4028.71794872 , 4460.0 , 4141.02564103 , 4153.33333333 , 4335.8974359 , 4541.53846154 , 4376.41025641 , 4184.1025641 , 4369.23076923 , 3819.48717949 , 3776.41025641 , 4187.17948718 , 4212.82051282 , 4348.71794872 , 1658.0 , 1696.0 , 10.405 , 0.0 , 0.0 , 0.0 , 0.0 , 

126.0 , 4036.41025641 , 4424.1025641 , 4196.41025641 , 4141.53846154 , 4323.58974359 , 4517.94871795 , 4350.25641026 , 4203.07692308 , 4368.71794872 , 3828.71794872 , 3807.69230769 , 4217.43589744 , 4208.71794872 , 4342.05128205 , 1658.0 , 1698.0 , 10.405 , 0.0 , 0.0 , 0.0 , 0.0 , 

127.0 , 3996.41025641 , 4349.23076923 , 4355.8974359 , 4172.82051282 , 4313.33333333 , 4492.30769231 , 4323.58974359 , 4195.38461538 , 4368.20512821 , 3827.17948718 , 3850.76923077 , 4304.1025641 , 4175.8974359 , 4317.94871795 , 1660.0 , 1699.0 , 10.421 , 0.0 , 0.0 , 0.0 , 0.0 , 

128.0 , 3948.71794872 , 4274.87179487 , 4561.53846154 , 4234.35897436 , 4304.1025641 , 4479.48717949 , 4310.76923077 , 4173.33333333 , 4360.51282051 , 3817.94871795 , 3891.79487179 , 4412.30769231 , 4137.94871795 , 4298.46153846 , 1659.0 , 1700.0 , 10.421 , 0.0 , 0.0 , 0.0 , 0.0 , 

0.0 , 3926.66666667 , 4277.94871795 , 4621.02564103 , 4260.0 , 4312.82051282 , 4493.84615385 , 4343.07692308 , 4158.97435897 , 4347.17948718 , 3817.94871795 , 3876.92307692 , 4418.97435897 , 4125.12820513 , 4294.87179487 , 1660.0 , 1699.0 , 10.436 , 0.0 , 0.0 , 0.0 , 0.0 , 

1.0 , 3933.84615385 , 4353.84615385 , 4491.28205128 , 4243.58974359 , 4342.05128205 , 4532.82051282 , 4398.46153846 , 4159.48717949 , 4344.1025641 , 3820.0 , 3812.82051282 , 4321.02564103 , 4145.12820513 , 4301.02564103 , 1657.0 , 1697.0 , 10.436 , 0.0 , 0.0 , 0.0 , 0.0 , 

2.0 , 3944.61538462 , 4406.15384615 , 4365.64102564 , 4231.28205128 , 4361.02564103 , 4560.0 , 4427.17948718 , 4162.56410256 , 4344.1025641 , 3814.87179487 , 3773.33333333 , 4254.87179487 , 4166.66666667 , 4312.82051282 , 1659.0 , 1698.0 , 10.452 , 0.0 , 0.0 , 0.0 , 0.0 , 

3.0 , 3915.38461538 , 4364.61538462 , 4434.87179487 , 4264.61538462 , 4349.23076923 , 4549.74358974 , 4419.48717949 , 4150.76923077 , 4334.35897436 , 3812.30769231 , 3792.82051282 , 4310.76923077 , 4147.69230769 , 4309.23076923 , 1659.0 , 1698.0 , 10.452 , 0.0 , 0.0 , 0.0 , 0.0 , 

4.0 , 3877.94871795 , 4291.28205128 , 4593.84615385 , 4302.56410256 , 4330.76923077 , 4528.71794872 , 4400.51282051 , 4133.33333333 , 4323.58974359 , 3813.33333333 , 3830.76923077 , 4402.05128205 , 4113.33333333 , 4288.20512821 , 1660.0 , 1698.0 , 10.467 , 0.0 , 0.0 , 0.0 , 0.0 , 

5.0 , 3886.15384615 , 4275.38461538 , 4617.94871795 , 4283.07692308 , 4329.23076923 , 4524.1025641 , 4393.84615385 , 4140.0 , 4326.66666667 , 3813.84615385 , 3841.02564103 , 4405.12820513 , 4111.28205128 , 4278.97435897 , 1658.0 , 1698.0 , 10.467 , 0.0 , 0.0 , 0.0 , 0.0 , 

6.0 , 3911.28205128 , 4295.38461538 , 4550.76923077 , 4241.02564103 , 4334.35897436 , 4525.64102564 , 4395.8974359 , 4156.41025641 , 4337.43589744 , 3817.43589744 , 3834.35897436 , 4360.0 , 4126.66666667 , 4285.12820513 , 1658.0 , 1699.0 , 10.483 , 0.0 , 0.0 , 0.0 , 0.0 , 

7.0 , 3923.07692308 , 4305.64102564 , 4513.33333333 , 4222.05128205 , 4332.82051282 , 4528.20512821 , 4395.38461538 , 4161.53846154 , 4343.58974359 , 3820.0 , 3829.74358974 , 4335.8974359 , 4135.8974359 , 4291.28205128 , 1659.0 , 1698.0 , 10.483 , 0.0 , 0.0 , 0.0 , 0.0 , 

8.0 , 3945.12820513 , 4323.58974359 , 4455.38461538 , 4197.43589744 , 4333.33333333 , 4536.92307692 , 4389.74358974 , 4170.25641026 , 4350.25641026 , 3819.48717949 , 3817.94871795 , 4301.53846154 , 4151.28205128 , 4300.0 , 1660.0 , 1698.0 , 10.499 , 0.0 , 0.0 , 0.0 , 0.0 , 

9.0 , 3974.87179487 , 4364.1025641 , 4350.76923077 , 4161.53846154 , 4340.51282051 , 4539.48717949 , 4387.17948718 , 4180.0 , 4355.38461538 , 3818.46153846 , 3798.97435897 , 4247.17948718 , 4168.71794872 , 4311.28205128 , 1659.0 , 1698.0 , 10.499 , 0.0 , 0.0 , 0.0 , 0.0 , 

10.0 , 3984.1025641 , 4390.25641026 , 4295.38461538 , 4155.38461538 , 4342.05128205 , 4536.41025641 , 4384.61538462 , 4177.94871795 , 4357.43589744 , 3818.46153846 , 3790.76923077 , 4228.71794872 , 4174.35897436 , 4314.35897436 , 1658.0 , 1699.0 , 10.514 , 0.0 , 0.0 , 0.0 , 0.0 , 

11.0 , 3983.58974359 , 4395.8974359 , 4280.51282051 , 4158.97435897 , 4336.41025641 , 4540.51282051 , 4381.53846154 , 4176.92307692 , 4362.56410256 , 3818.97435897 , 3789.74358974 , 4229.74358974 , 4178.97435897 , 4316.92307692 , 1659.0 , 1697.0 , 10.514 , 0.0 , 0.0 , 0.0 , 0.0 , 

12.0 , 3977.94871795 , 4390.76923077 , 4274.87179487 , 4152.82051282 , 4332.82051282 , 4538.46153846 , 4380.0 , 4183.07692308 , 4364.61538462 , 3818.46153846 , 3787.69230769 , 4231.28205128 , 4181.02564103 , 4318.97435897 , 1659.0 , 1698.0 , 10.53 , 0.0 , 0.0 , 0.0 , 0.0 , 

13.0 , 3961.02564103 , 4368.71794872 , 4319.48717949 , 4166.15384615 , 4330.76923077 , 4525.12820513 , 4372.30769231 , 4183.58974359 , 4358.97435897 , 3818.46153846 , 3798.46153846 , 4259.48717949 , 4170.25641026 , 4312.30769231 , 1660.0 , 1698.0 , 10.53 , 0.0 , 0.0 , 0.0 , 0.0 , 

14.0 , 3949.23076923 , 4348.20512821 , 4383.07692308 , 4192.30769231 , 4331.79487179 , 4522.05128205 , 4369.74358974 , 4181.02564103 , 4353.33333333 , 3818.46153846 , 3815.8974359 , 4293.33333333 , 4158.97435897 , 4303.58974359 , 1659.0 , 1698.0 , 10.545 , 0.0 , 0.0 , 0.0 , 0.0 , 

15.0 , 3943.07692308 , 4346.15384615 , 4412.82051282 , 4207.69230769 , 4334.87179487 , 4526.66666667 , 4374.87179487 , 4173.33333333 , 4352.82051282 , 3818.46153846 , 3818.46153846 , 4303.58974359 , 4152.82051282 , 4301.02564103 , 1659.0 , 1698.0 , 10.545 , 0.0 , 0.0 , 0.0 , 0.0 , 

16.0 , 3938.46153846 , 4346.15384615 , 4424.61538462 , 4210.76923077 , 4334.35897436 , 4527.17948718 , 4382.56410256 , 4161.53846154 , 4350.25641026 , 3818.46153846 , 3813.84615385 , 4307.69230769 , 4152.30769231 , 4302.05128205 , 1658.0 , 1698.0 , 10.561 , 0.0 , 0.0 , 0.0 , 0.0 , 

17.0 , 3937.43589744 , 4334.35897436 , 4448.20512821 , 4217.43589744 , 4331.28205128 , 4524.61538462 , 4385.64102564 , 4163.07692308 , 4346.15384615 , 3818.46153846 , 3820.0 , 4322.05128205 , 4149.23076923 , 4301.53846154 , 1659.0 , 1698.0 , 10.561 , 0.0 , 0.0 , 0.0 , 0.0 , 

18.0 , 3940.51282051 , 4328.71794872 , 4462.05128205 , 4221.02564103 , 4334.35897436 , 4523.07692308 , 4386.66666667 , 4171.79487179 , 4347.69230769 , 3818.46153846 , 3824.1025641 , 4324.61538462 , 4143.58974359 , 4299.48717949 , 1659.0 , 1698.0 , 10.577 , 0.0 , 0.0 , 0.0 , 0.0 , 

19.0 , 3945.64102564 , 4338.46153846 , 4440.51282051 , 4208.20512821 , 4336.92307692 , 4529.74358974 , 4387.69230769 , 4172.82051282 , 4351.28205128 , 3818.46153846 , 3814.87179487 , 4306.66666667 , 4150.76923077 , 4300.51282051 , 1660.0 , 1698.0 , 10.577 , 0.0 , 0.0 , 0.0 , 0.0 , 

20.0 , 3948.71794872 , 4346.66666667 , 4409.23076923 , 4193.84615385 , 4334.87179487 , 4538.46153846 , 4385.64102564 , 4170.25641026 , 4353.33333333 , 3818.46153846 , 3808.20512821 , 4292.30769231 , 4160.51282051 , 4302.56410256 , 1659.0 , 1699.0 , 10.592 , 0.0 , 0.0 , 0.0 , 0.0 , 

21.0 , 3948.20512821 , 4351.28205128 , 4385.12820513 , 4187.17948718 , 4333.33333333 , 4537.43589744 , 4382.05128205 , 4173.84615385 , 4356.41025641 , 3818.46153846 , 3808.20512821 , 4285.64102564 , 4160.0 , 4302.05128205 , 1659.0 , 1698.0 , 10.592 , 0.0 , 0.0 , 0.0 , 0.0 , 

22.0 , 3947.69230769 , 4354.87179487 , 4367.69230769 , 4181.02564103 , 4334.87179487 , 4533.33333333 , 4381.02564103 , 4177.43589744 , 4358.46153846 , 3818.46153846 , 3806.15384615 , 4276.41025641 , 4158.46153846 , 4302.05128205 , 1659.0 , 1698.0 , 10.608 , 0.0 , 0.0 , 0.0 , 0.0 , 

23.0 , 3952.30769231 , 4357.94871795 , 4359.48717949 , 4176.92307692 , 4335.8974359 , 4535.38461538 , 4381.53846154 , 4176.41025641 , 4357.43589744 , 3818.46153846 , 3804.61538462 , 4270.76923077 , 4162.56410256 , 4306.66666667 , 1660.0 , 1697.0 , 10.608 , 0.0 , 0.0 , 0.0 , 0.0 , 

24.0 , 3954.87179487 , 4359.48717949 , 4360.0 , 4181.02564103 , 4335.38461538 , 4536.41025641 , 4381.53846154 , 4177.43589744 , 4357.43589744 , 3818.46153846 , 3807.17948718 , 4272.30769231 , 4162.05128205 , 4309.74358974 , 1658.0 , 1698.0 , 10.623 , 0.0 , 0.0 , 0.0 , 0.0 , 

25.0 , 3953.33333333 , 4357.94871795 , 4368.20512821 , 4187.17948718 , 4333.33333333 , 4534.35897436 , 4381.53846154 , 4176.92307692 , 4355.8974359 , 3818.46153846 , 3806.66666667 , 4276.92307692 , 4158.97435897 , 4307.17948718 , 1659.0 , 1698.0 , 10.623 , 0.0 , 0.0 , 0.0 , 0.0 , 

26.0 , 3952.30769231 , 4357.94871795 , 4377.94871795 , 4190.76923077 , 4334.35897436 , 4534.87179487 , 4382.56410256 , 4170.76923077 , 4351.28205128 , 3818.46153846 , 3806.15384615 , 4283.07692308 , 4161.02564103 , 4306.15384615 , 1659.0 , 1698.0 , 10.639 , 0.0 , 0.0 , 0.0 , 0.0 , 

27.0 , 3954.87179487 , 4357.94871795 , 4386.66666667 , 4194.35897436 , 4337.43589744 , 4535.38461538 , 4383.07692308 , 4168.20512821 , 4350.76923077 , 3818.46153846 , 3809.74358974 , 4289.23076923 , 4161.53846154 , 4309.23076923 , 1659.0 , 1699.0 , 10.639 , 0.0 , 0.0 , 0.0 , 0.0 , 

28.0 , 3952.30769231 , 4352.82051282 , 4394.87179487 , 4196.41025641 , 4336.41025641 , 4534.35897436 , 4383.58974359 , 4171.28205128 , 4352.30769231 , 3818.46153846 , 3811.28205128 , 4293.33333333 , 4156.41025641 , 4308.71794872 , 1659.0 , 1697.0 , 10.655 , 0.0 , 0.0 , 0.0 , 0.0 , 

29.0 , 3949.74358974 , 4346.66666667 , 4402.05128205 , 4197.94871795 , 4331.79487179 , 4534.35897436 , 4384.1025641 , 4173.33333333 , 4351.28205128 , 3818.46153846 , 3810.25641026 , 4294.87179487 , 4153.84615385 , 4305.64102564 , 1658.0 , 1698.0 , 10.655 , 0.0 , 0.0 , 0.0 , 0.0 , 

30.0 , 3950.25641026 , 4345.64102564 , 4403.07692308 , 4198.46153846 , 4332.82051282 , 4536.92307692 , 4382.56410256 , 4173.84615385 , 4351.28205128 , 3818.46153846 , 3809.23076923 , 4294.87179487 , 4155.38461538 , 4304.1025641 , 1660.0 , 1698.0 , 10.67 , 0.0 , 0.0 , 0.0 , 0.0 , 

31.0 , 3950.76923077 , 4347.17948718 , 4397.94871795 , 4194.35897436 , 4334.87179487 , 4532.82051282 , 4382.05128205 , 4172.30769231 , 4354.35897436 , 3818.46153846 , 3810.25641026 , 4291.79487179 , 4154.87179487 , 4303.07692308 , 1659.0 , 1699.0 , 10.67 , 0.0 , 0.0 , 0.0 , 0.0 , 

32.0 , 3949.23076923 , 4349.23076923 , 4393.33333333 , 4191.28205128 , 4333.84615385 , 4528.20512821 , 4383.07692308 , 4169.23076923 , 4353.33333333 , 3818.46153846 , 3810.25641026 , 4288.71794872 , 4154.87179487 , 4301.53846154 , 1660.0 , 1698.0 , 10.686 , 0.0 , 0.0 , 0.0 , 0.0 , 

33.0 , 3948.71794872 , 4352.82051282 , 4390.25641026 , 4191.79487179 , 4332.82051282 , 4533.84615385 , 4383.07692308 , 4170.76923077 , 4350.76923077 , 3818.46153846 , 3810.76923077 , 4287.69230769 , 4158.97435897 , 4303.07692308 , 1658.0 , 1698.0 , 10.686 , 0.0 , 0.0 , 0.0 , 0.0 , 

34.0 , 3949.23076923 , 4356.92307692 , 4386.15384615 , 4191.79487179 , 4332.30769231 , 4538.46153846 , 4383.07692308 , 4173.84615385 , 4352.30769231 , 3818.46153846 , 3808.71794872 , 4285.64102564 , 4161.02564103 , 4307.69230769 , 1659.0 , 1699.0 , 10.702 , 0.0 , 0.0 , 0.0 , 0.0 , 

35.0 , 3951.79487179 , 4358.97435897 , 4381.53846154 , 4190.76923077 , 4333.33333333 , 4534.35897436 , 4383.58974359 , 4173.84615385 , 4354.35897436 , 3818.46153846 , 3807.69230769 , 4283.07692308 , 4158.97435897 , 4309.74358974 , 1659.0 , 1698.0 , 10.702 , 0.0 , 0.0 , 0.0 , 0.0 , 

36.0 , 3953.33333333 , 4357.43589744 , 4381.02564103 , 4192.30769231 , 4335.38461538 , 4535.38461538 , 4382.56410256 , 4172.82051282 , 4353.33333333 , 3818.46153846 , 3809.74358974 , 4284.1025641 , 4158.97435897 , 4306.15384615 , 1660.0 , 1698.0 , 10.718 , 0.0 , 0.0 , 0.0 , 0.0 , 

37.0 , 3953.84615385 , 4356.41025641 , 4382.56410256 , 4192.82051282 , 4336.41025641 , 4535.8974359 , 4382.05128205 , 4171.28205128 , 4351.79487179 , 3818.46153846 , 3809.23076923 , 4284.1025641 , 4158.97435897 , 4303.58974359 , 1659.0 , 1698.0 , 10.718 , 0.0 , 0.0 , 0.0 , 0.0 , 

38.0 , 3954.35897436 , 4357.43589744 , 4383.58974359 , 4192.30769231 , 4336.41025641 , 4530.25641026 , 4383.07692308 , 4173.33333333 , 4354.87179487 , 3818.46153846 , 3807.17948718 , 4282.56410256 , 4158.97435897 , 4307.17948718 , 1658.0 , 1699.0 , 10.734 , 0.0 , 0.0 , 0.0 , 0.0 , 

39.0 , 3952.82051282 , 4352.30769231 , 4386.15384615 , 4192.82051282 , 4334.87179487 , 4526.66666667 , 4382.56410256 , 4176.92307692 , 4355.8974359 , 3818.46153846 , 3808.71794872 , 4286.66666667 , 4158.97435897 , 4307.69230769 , 1659.0 , 1697.0 , 10.734 , 0.0 , 0.0 , 0.0 , 0.0 , 

40.0 , 3948.71794872 , 4346.66666667 , 4390.25641026 , 4193.84615385 , 4331.79487179 , 4526.15384615 , 4382.56410256 , 4175.8974359 , 4352.30769231 , 3818.46153846 , 3810.25641026 , 4290.76923077 , 4157.94871795 , 4304.1025641 , 1659.0 , 1699.0 , 10.749 , 0.0 , 0.0 , 0.0 , 0.0 , 

41.0 , 3947.69230769 , 4348.71794872 , 4391.79487179 , 4192.82051282 , 4331.79487179 , 4529.23076923 , 4382.05128205 , 4173.84615385 , 4352.30769231 , 3818.46153846 , 3809.23076923 , 4288.71794872 , 4156.92307692 , 4304.1025641 , 1660.0 , 1698.0 , 10.749 , 0.0 , 0.0 , 0.0 , 0.0 , 

42.0 , 3948.71794872 , 4351.28205128 , 4391.79487179 , 4192.82051282 , 4334.87179487 , 4535.38461538 , 4382.56410256 , 4174.35897436 , 4353.84615385 , 3818.46153846 , 3808.71794872 , 4288.71794872 , 4157.94871795 , 4305.64102564 , 1658.0 , 1698.0 , 10.765 , 0.0 , 0.0 , 0.0 , 0.0 , 

43.0 , 3949.74358974 , 4349.23076923 , 4390.76923077 , 4194.35897436 , 4334.35897436 , 4534.35897436 , 4383.58974359 , 4175.38461538 , 4352.82051282 , 3818.46153846 , 3809.23076923 , 4290.76923077 , 4160.0 , 4304.1025641 , 1659.0 , 1699.0 , 10.765 , 0.0 , 0.0 , 0.0 , 0.0 , 

44.0 , 3951.28205128 , 4350.25641026 , 4391.28205128 , 4194.35897436 , 4333.33333333 , 4530.76923077 , 4384.61538462 , 4173.84615385 , 4351.79487179 , 3818.46153846 , 3809.23076923 , 4289.74358974 , 4160.0 , 4304.1025641 , 1659.0 , 1697.0 , 10.78 , 0.0 , 0.0 , 0.0 , 0.0 , 

45.0 , 3952.82051282 , 4352.82051282 , 4390.76923077 , 4194.35897436 , 4337.94871795 , 4534.87179487 , 4385.12820513 , 4172.30769231 , 4351.79487179 , 3818.46153846 , 3810.25641026 , 4286.66666667 , 4156.92307692 , 4306.15384615 , 1660.0 , 1698.0 , 10.78 , 0.0 , 0.0 , 0.0 , 0.0 , 

46.0 , 3953.84615385 , 4352.82051282 , 4389.23076923 , 4193.33333333 , 4337.43589744 , 4536.92307692 , 4386.15384615 , 4172.30769231 , 4350.76923077 , 3818.46153846 , 3809.23076923 , 4286.15384615 , 4156.41025641 , 4305.64102564 , 1659.0 , 1697.0 , 10.796 , 0.0 , 0.0 , 0.0 , 0.0 , 

47.0 , 3953.84615385 , 4351.79487179 , 4388.20512821 , 4192.82051282 , 4330.76923077 , 4525.64102564 , 4383.58974359 , 4173.33333333 , 4350.76923077 , 3818.46153846 , 3808.20512821 , 4288.71794872 , 4156.41025641 , 4306.66666667 , 1659.0 , 1699.0 , 10.796 , 0.0 , 0.0 , 0.0 , 0.0 , 

48.0 , 3954.87179487 , 4351.28205128 , 4389.74358974 , 4192.30769231 , 4332.82051282 , 4522.05128205 , 4381.02564103 , 4172.82051282 , 4352.30769231 , 3818.46153846 , 3808.71794872 , 4290.76923077 , 4156.92307692 , 4307.17948718 , 1659.0 , 1698.0 , 10.812 , 0.0 , 0.0 , 0.0 , 0.0 , 

49.0 , 3953.33333333 , 4350.76923077 , 4389.23076923 , 4190.76923077 , 4336.92307692 , 4532.82051282 , 4382.56410256 , 4173.33333333 , 4354.35897436 , 3818.46153846 , 3809.23076923 , 4287.69230769 , 4158.46153846 , 4302.56410256 , 1659.0 , 1699.0 , 10.812 , 0.0 , 0.0 , 0.0 , 0.0 , 

50.0 , 3949.23076923 , 4348.71794872 , 4387.69230769 , 4191.28205128 , 4334.87179487 , 4535.38461538 , 4383.58974359 , 4174.35897436 , 4354.87179487 , 3818.46153846 , 3808.71794872 , 4285.64102564 , 4159.48717949 , 4303.07692308 , 1660.0 , 1698.0 , 10.827 , 0.0 , 0.0 , 0.0 , 0.0 , 

51.0 , 3947.69230769 , 4347.17948718 , 4390.25641026 , 4194.35897436 , 4333.33333333 , 4529.74358974 , 4383.58974359 , 4175.8974359 , 4353.33333333 , 3818.46153846 , 3809.23076923 , 4287.69230769 , 4157.43589744 , 4307.69230769 , 1658.0 , 1698.0 , 10.827 , 0.0 , 0.0 , 0.0 , 0.0 , 

52.0 , 3950.76923077 , 4348.20512821 , 4398.97435897 , 4194.87179487 , 4335.8974359 , 4533.33333333 , 4384.1025641 , 4175.8974359 , 4352.82051282 , 3818.46153846 , 3810.76923077 , 4289.74358974 , 4155.38461538 , 4303.58974359 , 1660.0 , 1698.0 , 10.843 , 0.0 , 0.0 , 0.0 , 0.0 , 

53.0 , 3951.28205128 , 4349.23076923 , 4402.56410256 , 4194.35897436 , 4336.41025641 , 4535.38461538 , 4385.64102564 , 4170.76923077 , 4352.30769231 , 3818.46153846 , 3810.25641026 , 4291.79487179 , 4155.8974359 , 4298.97435897 , 1659.0 , 1698.0 , 10.843 , 0.0 , 0.0 , 0.0 , 0.0 , 

54.0 , 3947.69230769 , 4348.20512821 , 4400.51282051 , 4196.41025641 , 4333.84615385 , 4533.33333333 , 4385.12820513 , 4168.20512821 , 4350.25641026 , 3818.46153846 , 3808.71794872 , 4294.35897436 , 4155.8974359 , 4303.07692308 , 1659.0 , 1699.0 , 10.858 , 0.0 , 0.0 , 0.0 , 0.0 , 

55.0 , 3948.20512821 , 4348.20512821 , 4401.53846154 , 4196.41025641 , 4334.35897436 , 4536.41025641 , 4385.12820513 , 4171.28205128 , 4349.23076923 , 3818.46153846 , 3809.23076923 , 4291.79487179 , 4156.41025641 , 4304.61538462 , 1659.0 , 1698.0 , 10.858 , 0.0 , 0.0 , 0.0 , 0.0 , 

56.0 , 3948.71794872 , 4349.23076923 , 4398.46153846 , 4193.33333333 , 4336.41025641 , 4533.84615385 , 4387.17948718 , 4170.76923077 , 4350.25641026 , 3818.46153846 , 3810.25641026 , 4287.17948718 , 4157.43589744 , 4301.53846154 , 1659.0 , 1699.0 , 10.874 , 0.0 , 0.0 , 0.0 , 0.0 , 

57.0 , 3947.69230769 , 4350.76923077 , 4389.23076923 , 4191.79487179 , 4334.35897436 , 4526.66666667 , 4385.12820513 , 4171.79487179 , 4350.76923077 , 3818.46153846 , 3808.71794872 , 4288.20512821 , 4158.97435897 , 4303.58974359 , 1660.0 , 1698.0 , 10.874 , 0.0 , 0.0 , 0.0 , 0.0 , 

58.0 , 3948.20512821 , 4352.82051282 , 4385.12820513 , 4191.28205128 , 4330.76923077 , 4532.30769231 , 4381.53846154 , 4175.8974359 , 4352.82051282 , 3818.46153846 , 3807.17948718 , 4289.23076923 , 4158.46153846 , 4306.66666667 , 1659.0 , 1699.0 , 10.89 , 0.0 , 0.0 , 0.0 , 0.0 , 

59.0 , 3951.28205128 , 4352.30769231 , 4387.17948718 , 4190.76923077 , 4333.84615385 , 4537.94871795 , 4382.56410256 , 4175.38461538 , 4355.8974359 , 3818.46153846 , 3808.71794872 , 4286.15384615 , 4157.43589744 , 4304.1025641 , 1660.0 , 1698.0 , 10.89 , 0.0 , 0.0 , 0.0 , 0.0 , 

60.0 , 3951.79487179 , 4349.74358974 , 4389.23076923 , 4190.76923077 , 4338.97435897 , 4534.35897436 , 4384.61538462 , 4173.33333333 , 4353.84615385 , 3818.46153846 , 3810.25641026 , 4287.69230769 , 4158.46153846 , 4303.07692308 , 1658.0 , 1699.0 , 10.905 , 0.0 , 0.0 , 0.0 , 0.0 , 

61.0 , 3950.76923077 , 4349.74358974 , 4389.74358974 , 4191.79487179 , 4334.35897436 , 4533.33333333 , 4382.05128205 , 4174.87179487 , 4351.28205128 , 3818.46153846 , 3809.23076923 , 4289.74358974 , 4158.97435897 , 4306.15384615 , 1659.0 , 1698.0 , 10.905 , 0.0 , 0.0 , 0.0 , 0.0 , 

62.0 , 3950.76923077 , 4350.76923077 , 4389.23076923 , 4192.82051282 , 4329.74358974 , 4535.8974359 , 4381.02564103 , 4174.87179487 , 4352.30769231 , 3818.46153846 , 3808.71794872 , 4286.66666667 , 4156.41025641 , 4306.15384615 , 1659.0 , 1698.0 , 10.921 , 0.0 , 0.0 , 0.0 , 0.0 , 

63.0 , 3950.76923077 , 4351.28205128 , 4388.71794872 , 4194.35897436 , 4332.82051282 , 4536.92307692 , 4383.58974359 , 4172.30769231 , 4353.84615385 , 3818.46153846 , 3808.20512821 , 4285.64102564 , 4155.8974359 , 4302.56410256 , 1660.0 , 1698.0 , 10.921 , 0.0 , 0.0 , 0.0 , 0.0 , 

64.0 , 3948.20512821 , 4350.76923077 , 4391.79487179 , 4192.82051282 , 4336.92307692 , 4534.35897436 , 4383.58974359 , 4174.35897436 , 4350.76923077 , 3818.46153846 , 3808.20512821 , 4288.71794872 , 4157.43589744 , 4301.53846154 , 1658.0 , 1698.0 , 10.936 , 0.0 , 0.0 , 0.0 , 0.0 , 

65.0 , 3947.69230769 , 4349.23076923 , 4394.87179487 , 4191.28205128 , 4335.38461538 , 4535.38461538 , 4384.61538462 , 4175.38461538 , 4350.25641026 , 3818.46153846 , 3809.74358974 , 4289.23076923 , 4158.46153846 , 4303.07692308 , 1659.0 , 1699.0 , 10.936 , 0.0 , 0.0 , 0.0 , 0.0 , 

66.0 , 3950.76923077 , 4349.74358974 , 4395.8974359 , 4192.82051282 , 4332.30769231 , 4538.46153846 , 4385.64102564 , 4173.84615385 , 4352.30769231 , 3818.46153846 , 3809.74358974 , 4288.71794872 , 4158.97435897 , 4303.58974359 , 1659.0 , 1697.0 , 10.952 , 0.0 , 0.0 , 0.0 , 0.0 , 

67.0 , 3950.76923077 , 4350.76923077 , 4395.38461538 , 4194.35897436 , 4332.30769231 , 4538.46153846 , 4383.07692308 , 4171.79487179 , 4353.33333333 , 3818.46153846 , 3809.23076923 , 4289.74358974 , 4158.46153846 , 4302.56410256 , 1659.0 , 1700.0 , 10.952 , 0.0 , 0.0 , 0.0 , 0.0 , 

68.0 , 3948.71794872 , 4350.25641026 , 4394.35897436 , 4193.84615385 , 4334.87179487 , 4534.35897436 , 4383.58974359 , 4173.84615385 , 4355.38461538 , 3818.46153846 , 3809.74358974 , 4287.69230769 , 4156.92307692 , 4302.56410256 , 1660.0 , 1698.0 , 10.968 , 0.0 , 0.0 , 0.0 , 0.0 , 

69.0 , 3948.71794872 , 4350.76923077 , 4394.35897436 , 4193.84615385 , 4337.43589744 , 4528.71794872 , 4385.64102564 , 4174.87179487 , 4356.92307692 , 3818.46153846 , 3808.71794872 , 4286.66666667 , 4157.43589744 , 4302.05128205 , 1659.0 , 1699.0 , 10.968 , 0.0 , 0.0 , 0.0 , 0.0 , 

70.0 , 3948.71794872 , 4351.28205128 , 4394.87179487 , 4193.84615385 , 4335.8974359 , 4527.17948718 , 4385.12820513 , 4171.28205128 , 4353.33333333 , 3818.46153846 , 3808.71794872 , 4290.25641026 , 4157.94871795 , 4302.56410256 , 1659.0 , 1698.0 , 10.983 , 0.0 , 0.0 , 0.0 , 0.0 , 

71.0 , 3947.69230769 , 4348.71794872 , 4394.87179487 , 4192.82051282 , 4333.84615385 , 4528.71794872 , 4383.58974359 , 4172.30769231 , 4350.76923077 , 3818.46153846 , 3809.23076923 , 4291.28205128 , 4157.94871795 , 4304.1025641 , 1658.0 , 1699.0 , 10.983 , 0.0 , 0.0 , 0.0 , 0.0 , 

72.0 , 3948.20512821 , 4347.69230769 , 4395.38461538 , 4193.84615385 , 4335.38461538 , 4529.74358974 , 4384.1025641 , 4174.87179487 , 4351.79487179 , 3818.46153846 , 3808.71794872 , 4288.20512821 , 4158.46153846 , 4305.12820513 , 1659.0 , 1698.0 , 10.999 , 0.0 , 0.0 , 0.0 , 0.0 , 

73.0 , 3949.23076923 , 4347.69230769 , 4396.41025641 , 4194.87179487 , 4336.41025641 , 4530.25641026 , 4385.12820513 , 4172.30769231 , 4350.25641026 , 3818.46153846 , 3808.71794872 , 4287.69230769 , 4156.92307692 , 4302.56410256 , 1659.0 , 1698.0 , 10.999 , 0.0 , 0.0 , 0.0 , 0.0 , 

74.0 , 3948.20512821 , 4347.69230769 , 4395.38461538 , 4193.33333333 , 4332.82051282 , 4530.76923077 , 4384.61538462 , 4170.25641026 , 4350.25641026 , 3818.46153846 , 3810.25641026 , 4290.25641026 , 4155.8974359 , 4302.56410256 , 1659.0 , 1698.0 , 11.014 , 0.0 , 0.0 , 0.0 , 0.0 , 

75.0 , 3945.64102564 , 4348.20512821 , 4394.35897436 , 4192.30769231 , 4332.30769231 , 4532.82051282 , 4384.61538462 , 4171.28205128 , 4352.82051282 , 3818.46153846 , 3809.74358974 , 4289.74358974 , 4157.43589744 , 4304.1025641 , 1659.0 , 1698.0 , 11.014 , 0.0 , 0.0 , 0.0 , 0.0 , 

76.0 , 3947.17948718 , 4349.74358974 , 4394.87179487 , 4192.30769231 , 4335.38461538 , 4535.38461538 , 4384.61538462 , 4172.30769231 , 4351.79487179 , 3818.46153846 , 3808.71794872 , 4287.69230769 , 4155.8974359 , 4303.58974359 , 1660.0 , 1698.0 , 11.03 , 0.0 , 0.0 , 0.0 , 0.0 , 

77.0 , 3950.25641026 , 4349.74358974 , 4393.33333333 , 4190.25641026 , 4334.35897436 , 4536.41025641 , 4383.58974359 , 4171.79487179 , 4351.79487179 , 3818.46153846 , 3808.20512821 , 4286.66666667 , 4154.87179487 , 4302.05128205 , 1659.0 , 1698.0 , 11.03 , 0.0 , 0.0 , 0.0 , 0.0 , 

78.0 , 3949.74358974 , 4348.20512821 , 4389.23076923 , 4188.20512821 , 4333.33333333 , 4535.38461538 , 4384.1025641 , 4171.79487179 , 4353.84615385 , 3818.46153846 , 3807.17948718 , 4287.17948718 , 4157.43589744 , 4302.56410256 , 1659.0 , 1698.0 , 11.046 , 0.0 , 0.0 , 0.0 , 0.0 , 

79.0 , 3947.69230769 , 4350.25641026 , 4385.12820513 , 4188.20512821 , 4336.92307692 , 4535.8974359 , 4384.61538462 , 4173.84615385 , 4353.33333333 , 3818.46153846 , 3807.17948718 , 4287.17948718 , 4155.8974359 , 4303.07692308 , 1658.0 , 1699.0 , 11.046 , 0.0 , 0.0 , 0.0 , 0.0 , 

80.0 , 3949.74358974 , 4353.84615385 , 4383.07692308 , 4187.69230769 , 4335.8974359 , 4536.92307692 , 4384.61538462 , 4175.8974359 , 4352.82051282 , 3818.46153846 , 3807.69230769 , 4286.66666667 , 4155.38461538 , 4304.1025641 , 1659.0 , 1698.0 , 11.061 , 0.0 , 0.0 , 0.0 , 0.0 , 

81.0 , 3954.35897436 , 4354.35897436 , 4381.02564103 , 4189.74358974 , 4332.82051282 , 4534.35897436 , 4384.61538462 , 4174.35897436 , 4356.41025641 , 3818.46153846 , 3807.69230769 , 4285.12820513 , 4160.0 , 4305.64102564 , 1659.0 , 1698.0 , 11.061 , 0.0 , 0.0 , 0.0 , 0.0 , 

82.0 , 3953.33333333 , 4354.35897436 , 4378.97435897 , 4191.28205128 , 4333.84615385 , 4533.33333333 , 4384.61538462 , 4173.84615385 , 4356.41025641 , 3818.46153846 , 3807.17948718 , 4282.56410256 , 4161.02564103 , 4307.17948718 , 1660.0 , 1698.0 , 11.077 , 0.0 , 0.0 , 0.0 , 0.0 , 

83.0 , 3949.74358974 , 4356.41025641 , 4375.8974359 , 4188.71794872 , 4338.46153846 , 4535.38461538 , 4384.61538462 , 4176.41025641 , 4352.82051282 , 3818.46153846 , 3808.20512821 , 4283.07692308 , 4158.97435897 , 4305.64102564 , 1659.0 , 1698.0 , 11.077 , 0.0 , 0.0 , 0.0 , 0.0 , 

84.0 , 3950.76923077 , 4356.41025641 , 4376.41025641 , 4188.20512821 , 4338.46153846 , 4536.41025641 , 4385.12820513 , 4174.87179487 , 4352.30769231 , 3818.46153846 , 3807.69230769 , 4285.64102564 , 4160.51282051 , 4304.61538462 , 1660.0 , 1699.0 , 11.092 , 0.0 , 0.0 , 0.0 , 0.0 , 

85.0 , 3954.35897436 , 4353.84615385 , 4381.02564103 , 4193.33333333 , 4335.8974359 , 4532.30769231 , 4385.12820513 , 4172.30769231 , 4353.84615385 , 3818.46153846 , 3806.15384615 , 4287.17948718 , 4161.53846154 , 4305.12820513 , 1660.0 , 1698.0 , 11.092 , 0.0 , 0.0 , 0.0 , 0.0 , 

86.0 , 3951.28205128 , 4353.84615385 , 4384.1025641 , 4193.84615385 , 4334.87179487 , 4531.28205128 , 4384.61538462 , 4173.33333333 , 4353.33333333 , 3818.46153846 , 3807.17948718 , 4284.1025641 , 4159.48717949 , 4305.12820513 , 1659.0 , 1699.0 , 11.108 , 0.0 , 0.0 , 0.0 , 0.0 , 

87.0 , 3947.69230769 , 4352.82051282 , 4387.69230769 , 4191.79487179 , 4334.35897436 , 4535.8974359 , 4383.58974359 , 4174.35897436 , 4351.79487179 , 3818.46153846 , 3808.20512821 , 4287.17948718 , 4160.0 , 4304.61538462 , 1659.0 , 1698.0 , 11.108 , 0.0 , 0.0 , 0.0 , 0.0 , 

88.0 , 3950.25641026 , 4349.74358974 , 4394.35897436 , 4195.8974359 , 4333.84615385 , 4537.43589744 , 4382.56410256 , 4174.35897436 , 4352.82051282 , 3818.46153846 , 3808.71794872 , 4294.87179487 , 4160.51282051 , 4304.1025641 , 1659.0 , 1698.0 , 11.124 , 0.0 , 0.0 , 0.0 , 0.0 , 

89.0 , 3951.28205128 , 4348.20512821 , 4400.0 , 4197.43589744 , 4331.79487179 , 4535.38461538 , 4384.1025641 , 4174.35897436 , 4352.30769231 , 3818.46153846 , 3809.74358974 , 4294.35897436 , 4158.97435897 , 4304.61538462 , 1659.0 , 1698.0 , 11.124 , 0.0 , 0.0 , 0.0 , 0.0 , 

90.0 , 3949.74358974 , 4350.76923077 , 4398.97435897 , 4193.33333333 , 4332.82051282 , 4534.35897436 , 4385.12820513 , 4175.38461538 , 4350.76923077 , 3818.46153846 , 3810.76923077 , 4289.23076923 , 4156.92307692 , 4304.61538462 , 1658.0 , 1699.0 , 11.139 , 0.0 , 0.0 , 0.0 , 0.0 , 

91.0 , 3949.74358974 , 4352.30769231 , 4392.82051282 , 4190.76923077 , 4334.87179487 , 4534.35897436 , 4383.58974359 , 4174.87179487 , 4351.79487179 , 3818.46153846 , 3809.74358974 , 4288.71794872 , 4157.94871795 , 4301.53846154 , 1659.0 , 1698.0 , 11.139 , 0.0 , 0.0 , 0.0 , 0.0 , 

92.0 , 3949.74358974 , 4349.74358974 , 4386.15384615 , 4190.76923077 , 4336.41025641 , 4535.38461538 , 4383.07692308 , 4174.35897436 , 4353.84615385 , 3818.46153846 , 3806.66666667 , 4288.71794872 , 4159.48717949 , 4301.53846154 , 1659.0 , 1698.0 , 11.155 , 0.0 , 0.0 , 0.0 , 0.0 , 

93.0 , 3951.28205128 , 4350.76923077 , 4380.0 , 4189.74358974 , 4336.41025641 , 4535.8974359 , 4383.58974359 , 4173.84615385 , 4352.82051282 , 3818.46153846 , 3804.61538462 , 4283.58974359 , 4159.48717949 , 4306.66666667 , 1660.0 , 1698.0 , 11.155 , 0.0 , 0.0 , 0.0 , 0.0 , 

94.0 , 3952.30769231 , 4355.38461538 , 4376.41025641 , 4189.74358974 , 4335.8974359 , 4534.87179487 , 4383.58974359 , 4173.33333333 , 4351.28205128 , 3818.46153846 , 3805.12820513 , 4278.97435897 , 4160.51282051 , 4307.69230769 , 1659.0 , 1699.0 , 11.17 , 0.0 , 0.0 , 0.0 , 0.0 , 

95.0 , 3953.84615385 , 4356.92307692 , 4374.87179487 , 4190.25641026 , 4335.8974359 , 4534.35897436 , 4385.12820513 , 4174.35897436 , 4351.79487179 , 3818.46153846 , 3807.17948718 , 4280.0 , 4160.51282051 , 4305.12820513 , 1660.0 , 1699.0 , 11.17 , 0.0 , 0.0 , 0.0 , 0.0 , 

96.0 , 3954.35897436 , 4356.41025641 , 4375.8974359 , 4187.17948718 , 4333.84615385 , 4535.8974359 , 4385.12820513 , 4173.84615385 , 4353.33333333 , 3818.46153846 , 3806.15384615 , 4282.56410256 , 4159.48717949 , 4304.1025641 , 1659.0 , 1697.0 , 11.186 , 0.0 , 0.0 , 0.0 , 0.0 , 

97.0 , 3954.35897436 , 4356.92307692 , 4378.46153846 , 4187.69230769 , 4334.35897436 , 4533.84615385 , 4383.58974359 , 4173.84615385 , 4354.87179487 , 3818.46153846 , 3805.12820513 , 4283.07692308 , 4160.0 , 4306.15384615 , 1659.0 , 1699.0 , 11.186 , 0.0 , 0.0 , 0.0 , 0.0 , 

98.0 , 3952.82051282 , 4353.84615385 , 4383.07692308 , 4192.82051282 , 4335.8974359 , 4530.76923077 , 4382.56410256 , 4175.38461538 , 4351.79487179 , 3818.46153846 , 3806.15384615 , 4285.12820513 , 4160.51282051 , 4308.20512821 , 1659.0 , 1698.0 , 11.202 , 0.0 , 0.0 , 0.0 , 0.0 , 

99.0 , 3951.79487179 , 4351.28205128 , 4388.71794872 , 4194.35897436 , 4335.38461538 , 4529.23076923 , 4382.05128205 , 4175.8974359 , 4349.23076923 , 3818.46153846 , 3808.71794872 , 4288.71794872 , 4160.51282051 , 4307.17948718 , 1658.0 , 1699.0 , 11.202 , 0.0 , 0.0 , 0.0 , 0.0 , 

100.0 , 3949.74358974 , 4350.76923077 , 4395.38461538 , 4194.35897436 , 4333.33333333 , 4532.30769231 , 4383.07692308 , 4172.30769231 , 4352.82051282 , 3818.46153846 , 3810.25641026 , 4288.20512821 , 4158.46153846 , 4304.1025641 , 1659.0 , 1698.0 , 11.217 , 0.0 , 0.0 , 0.0 , 0.0 , 

101.0 , 3947.69230769 , 4348.71794872 , 4404.61538462 , 4197.94871795 , 4333.84615385 , 4532.30769231 , 4384.61538462 , 4170.25641026 , 4353.84615385 , 3818.46153846 , 3810.25641026 , 4293.84615385 , 4155.8974359 , 4303.58974359 , 1659.0 , 1697.0 , 11.217 , 0.0 , 0.0 , 0.0 , 0.0 , 

102.0 , 3947.69230769 , 4344.1025641 , 4410.25641026 , 4199.48717949 , 4336.41025641 , 4531.79487179 , 4384.1025641 , 4171.28205128 , 4350.76923077 , 3818.46153846 , 3810.76923077 , 4301.53846154 , 4153.33333333 , 4304.1025641 , 1659.0 , 1698.0 , 11.233 , 0.0 , 0.0 , 0.0 , 0.0 , 

103.0 , 3945.64102564 , 4343.07692308 , 4408.71794872 , 4196.92307692 , 4336.41025641 , 4533.33333333 , 4383.58974359 , 4173.84615385 , 4350.25641026 , 3818.46153846 , 3811.28205128 , 4297.43589744 , 4151.28205128 , 4301.53846154 , 1659.0 , 1699.0 , 11.233 , 0.0 , 0.0 , 0.0 , 0.0 , 

104.0 , 3945.64102564 , 4346.66666667 , 4403.07692308 , 4194.87179487 , 4336.41025641 , 4534.35897436 , 4384.61538462 , 4175.38461538 , 4352.30769231 , 3818.46153846 , 3809.74358974 , 4290.76923077 , 4152.30769231 , 4301.53846154 , 1659.0 , 1699.0 , 11.248 , 0.0 , 0.0 , 0.0 , 0.0 , 

105.0 , 3947.69230769 , 4350.76923077 , 4394.35897436 , 4192.30769231 , 4337.94871795 , 4533.33333333 , 4384.61538462 , 4174.35897436 , 4352.30769231 , 3818.46153846 , 3807.17948718 , 4289.23076923 , 4155.8974359 , 4303.58974359 , 1658.0 , 1698.0 , 11.248 , 0.0 , 0.0 , 0.0 , 0.0 , 

106.0 , 3949.74358974 , 4353.84615385 , 4383.07692308 , 4188.71794872 , 4338.46153846 , 4533.84615385 , 4383.58974359 , 4173.84615385 , 4351.28205128 , 3818.46153846 , 3805.64102564 , 4284.61538462 , 4158.97435897 , 4304.1025641 , 1659.0 , 1699.0 , 11.264 , 0.0 , 0.0 , 0.0 , 0.0 , 

107.0 , 3952.82051282 , 4355.8974359 , 4372.82051282 , 4187.17948718 , 4337.94871795 , 4535.8974359 , 4383.07692308 , 4175.38461538 , 4351.28205128 , 3818.46153846 , 3805.12820513 , 4277.43589744 , 4160.51282051 , 4303.58974359 , 1659.0 , 1698.0 , 11.264 , 0.0 , 0.0 , 0.0 , 0.0 , 

108.0 , 3955.38461538 , 4355.8974359 , 4370.25641026 , 4187.69230769 , 4336.41025641 , 4531.28205128 , 4382.56410256 , 4174.35897436 , 4352.82051282 , 3818.46153846 , 3805.64102564 , 4277.43589744 , 4160.51282051 , 4305.12820513 , 1659.0 , 1698.0 , 11.28 , 0.0 , 0.0 , 0.0 , 0.0 , 

109.0 , 3954.87179487 , 4354.35897436 , 4373.84615385 , 4187.17948718 , 4336.41025641 , 4529.74358974 , 4382.56410256 , 4173.33333333 , 4353.33333333 , 3818.46153846 , 3806.66666667 , 4281.02564103 , 4158.46153846 , 4308.20512821 , 1660.0 , 1698.0 , 11.28 , 0.0 , 0.0 , 0.0 , 0.0 , 

110.0 , 3954.87179487 , 4354.35897436 , 4377.94871795 , 4188.71794872 , 4335.38461538 , 4534.35897436 , 4383.07692308 , 4174.35897436 , 4351.79487179 , 3818.46153846 , 3807.69230769 , 4283.58974359 , 4160.0 , 4307.69230769 , 1658.0 , 1698.0 , 11.295 , 0.0 , 0.0 , 0.0 , 0.0 , 

111.0 , 3954.87179487 , 4353.33333333 , 4380.51282051 , 4190.25641026 , 4337.94871795 , 4534.87179487 , 4382.56410256 , 4173.84615385 , 4352.30769231 , 3818.46153846 , 3808.71794872 , 4283.58974359 , 4162.05128205 , 4304.1025641 , 1659.0 , 1698.0 , 11.295 , 0.0 , 0.0 , 0.0 , 0.0 , 

112.0 , 3951.79487179 , 4352.30769231 , 4385.12820513 , 4191.79487179 , 4338.97435897 , 4533.84615385 , 4382.56410256 , 4172.82051282 , 4352.30769231 , 3818.46153846 , 3808.20512821 , 4285.12820513 , 4158.46153846 , 4304.1025641 , 1659.0 , 1698.0 , 11.311 , 0.0 , 0.0 , 0.0 , 0.0 , 

113.0 , 3949.74358974 , 4352.30769231 , 4390.25641026 , 4194.35897436 , 4335.8974359 , 4534.87179487 , 4384.61538462 , 4173.33333333 , 4351.79487179 , 3818.46153846 , 3807.69230769 , 4290.25641026 , 4157.43589744 , 4307.69230769 , 1659.0 , 1698.0 , 11.311 , 0.0 , 0.0 , 0.0 , 0.0 , 

114.0 , 3949.74358974 , 4350.25641026 , 4391.28205128 , 4194.35897436 , 4335.8974359 , 4534.87179487 , 4384.61538462 , 4173.33333333 , 4352.82051282 , 3818.46153846 , 3807.69230769 , 4292.30769231 , 4158.97435897 , 4306.15384615 , 1660.0 , 1698.0 , 11.326 , 0.0 , 0.0 , 0.0 , 0.0 , 

115.0 , 3949.23076923 , 4349.74358974 , 4391.79487179 , 4192.30769231 , 4337.43589744 , 4533.84615385 , 4381.53846154 , 4173.33333333 , 4352.82051282 , 3818.46153846 , 3808.20512821 , 4288.20512821 , 4160.51282051 , 4301.53846154 , 1659.0 , 1697.0 , 11.326 , 0.0 , 0.0 , 0.0 , 0.0 , 

116.0 , 3950.76923077 , 4350.76923077 , 4391.28205128 , 4191.79487179 , 4334.87179487 , 4535.8974359 , 4383.58974359 , 4173.84615385 , 4352.30769231 , 3818.46153846 , 3808.20512821 , 4286.15384615 , 4158.46153846 , 4302.05128205 , 1659.0 , 1698.0 , 11.342 , 0.0 , 0.0 , 0.0 , 0.0 , 

117.0 , 3952.82051282 , 4350.25641026 , 4388.71794872 , 4193.33333333 , 4333.84615385 , 4534.35897436 , 4386.15384615 , 4175.38461538 , 4352.82051282 , 3818.46153846 , 3808.20512821 , 4286.66666667 , 4153.33333333 , 4302.56410256 , 1658.0 , 1699.0 , 11.342 , 0.0 , 0.0 , 0.0 , 0.0 , 

118.0 , 3951.28205128 , 4350.76923077 , 4388.20512821 , 4191.79487179 , 4336.92307692 , 4531.28205128 , 4383.07692308 , 4176.92307692 , 4353.33333333 , 3818.46153846 , 3807.69230769 , 4284.61538462 , 4152.30769231 , 4302.56410256 , 1660.0 , 1697.0 , 11.358 , 0.0 , 0.0 , 0.0 , 0.0 , 

119.0 , 3950.76923077 , 4352.30769231 , 4388.20512821 , 4189.23076923 , 4335.38461538 , 4532.82051282 , 4381.53846154 , 4172.82051282 , 4352.82051282 , 3818.46153846 , 3807.17948718 , 4285.64102564 , 4157.43589744 , 4305.64102564 , 1658.0 , 1699.0 , 11.358 , 0.0 , 0.0 , 0.0 , 0.0 , 

120.0 , 3952.82051282 , 4351.28205128 , 4387.17948718 , 4190.76923077 , 4333.84615385 , 4534.35897436 , 4382.56410256 , 4169.23076923 , 4352.82051282 , 3818.46153846 , 3807.69230769 , 4286.66666667 , 4158.46153846 , 4306.15384615 , 1660.0 , 1697.0 , 11.373 , 0.0 , 0.0 , 0.0 , 0.0 , 

121.0 , 3952.30769231 , 4352.82051282 , 4387.69230769 , 4192.82051282 , 4336.41025641 , 4534.87179487 , 4382.56410256 , 4173.84615385 , 4352.82051282 , 3818.46153846 , 3808.20512821 , 4286.15384615 , 4156.92307692 , 4303.58974359 , 1658.0 , 1698.0 , 11.373 , 0.0 , 0.0 , 0.0 , 0.0 , 

122.0 , 3949.23076923 , 4353.84615385 , 4389.23076923 , 4192.82051282 , 4334.87179487 , 4536.92307692 , 4383.58974359 , 4175.38461538 , 4353.33333333 , 3818.46153846 , 3808.71794872 , 4286.15384615 , 4159.48717949 , 4304.1025641 , 1659.0 , 1698.0 , 11.389 , 0.0 , 0.0 , 0.0 , 0.0 , 

123.0 , 3948.71794872 , 4350.25641026 , 4392.30769231 , 4193.33333333 , 4333.84615385 , 4533.84615385 , 4385.12820513 , 4173.33333333 , 4353.33333333 , 3818.46153846 , 3808.71794872 , 4289.23076923 , 4160.0 , 4305.64102564 , 1659.0 , 1698.0 , 11.389 , 0.0 , 0.0 , 0.0 , 0.0 , 

124.0 , 3950.25641026 , 4349.74358974 , 4393.33333333 , 4194.87179487 , 4335.8974359 , 4529.74358974 , 4383.07692308 , 4172.82051282 , 4353.33333333 , 3818.46153846 , 3808.71794872 , 4289.74358974 , 4157.43589744 , 4303.07692308 , 1659.0 , 1699.0 , 11.404 , 0.0 , 0.0 , 0.0 , 0.0 , 

125.0 , 3949.74358974 , 4353.33333333 , 4390.76923077 , 4193.84615385 , 4335.8974359 , 4534.87179487 , 4383.58974359 , 4173.33333333 , 4352.30769231 , 3818.46153846 , 3810.25641026 , 4288.20512821 , 4157.94871795 , 4303.07692308 , 1659.0 , 1698.0 , 11.404 , 0.0 , 0.0 , 0.0 , 0.0 , 

126.0 , 3949.23076923 , 4353.33333333 , 4389.74358974 , 4192.30769231 , 4334.87179487 , 4538.46153846 , 4385.64102564 , 4173.84615385 , 4351.79487179 , 3818.46153846 , 3809.23076923 , 4286.66666667 , 4159.48717949 , 4304.1025641 , 1659.0 , 1699.0 , 11.42 , 0.0 , 0.0 , 0.0 , 0.0 , 

127.0 , 3950.76923077 , 4351.28205128 , 4389.74358974 , 4191.28205128 , 4335.8974359 , 4533.33333333 , 4383.58974359 , 4174.35897436 , 4351.79487179 , 3818.46153846 , 3806.66666667 , 4285.64102564 , 4158.46153846 , 4304.61538462 , 1659.0 , 1698.0 , 11.42 , 0.0 , 0.0 , 0.0 , 0.0 , 

128.0 , 3950.76923077 , 4351.28205128 , 4385.12820513 , 4190.25641026 , 4336.92307692 , 4532.30769231 , 4383.58974359 , 4173.33333333 , 4353.33333333 , 3818.46153846 , 3806.15384615 , 4286.15384615 , 4157.94871795 , 4304.1025641 , 1659.0 , 1698.0 , 11.436 , 0.0 , 0.0 , 0.0 , 0.0 , 

0.0 , 3952.82051282 , 4351.79487179 , 4384.61538462 , 4190.76923077 , 4337.94871795 , 4535.8974359 , 4385.64102564 , 4174.35897436 , 4354.35897436 , 3818.46153846 , 3807.69230769 , 4286.15384615 , 4157.94871795 , 4303.07692308 , 1659.0 , 1698.0 , 11.436 , 0.0 , 0.0 , 0.0 , 0.0 , 

1.0 , 3955.38461538 , 4351.28205128 , 4385.64102564 , 4189.74358974 , 4336.41025641 , 4535.38461538 , 4383.58974359 , 4176.41025641 , 4352.82051282 , 3818.46153846 , 3807.69230769 , 4286.15384615 , 4157.43589744 , 4303.58974359 , 1660.0 , 1698.0 , 11.451 , 0.0 , 0.0 , 0.0 , 0.0 , 

2.0 , 3951.79487179 , 4352.30769231 , 4382.56410256 , 4192.30769231 , 4333.33333333 , 4533.84615385 , 4381.02564103 , 4173.33333333 , 4351.79487179 , 3818.46153846 , 3806.66666667 , 4286.15384615 , 4159.48717949 , 4306.15384615 , 1659.0 , 1698.0 , 11.451 , 0.0 , 0.0 , 0.0 , 0.0 , 

3.0 , 3949.23076923 , 4353.33333333 , 4381.53846154 , 4192.82051282 , 4336.41025641 , 4536.41025641 , 4383.07692308 , 4172.30769231 , 4352.82051282 , 3818.46153846 , 3807.17948718 , 4284.61538462 , 4161.02564103 , 4307.69230769 , 1660.0 , 1699.0 , 11.467 , 0.0 , 0.0 , 0.0 , 0.0 , 

4.0 , 3951.79487179 , 4353.33333333 , 4385.64102564 , 4189.74358974 , 4337.43589744 , 4534.35897436 , 4385.64102564 , 4174.87179487 , 4353.84615385 , 3818.46153846 , 3806.66666667 , 4284.1025641 , 4159.48717949 , 4304.61538462 , 1659.0 , 1698.0 , 11.467 , 0.0 , 0.0 , 0.0 , 0.0 , 

5.0 , 3952.82051282 , 4352.82051282 , 4386.66666667 , 4190.76923077 , 4332.30769231 , 4529.23076923 , 4382.05128205 , 4174.87179487 , 4353.33333333 , 3818.46153846 , 3806.66666667 , 4287.17948718 , 4155.8974359 , 4304.1025641 , 1659.0 , 1698.0 , 11.482 , 0.0 , 0.0 , 0.0 , 0.0 , 

6.0 , 3951.28205128 , 4352.30769231 , 4386.15384615 , 4194.35897436 , 4332.30769231 , 4528.20512821 , 4381.02564103 , 4173.33333333 , 4351.79487179 , 3818.46153846 , 3808.20512821 , 4287.69230769 , 4155.38461538 , 4306.15384615 , 1659.0 , 1698.0 , 11.482 , 0.0 , 0.0 , 0.0 , 0.0 , 

7.0 , 3949.74358974 , 4352.82051282 , 4386.66666667 , 4194.87179487 , 4334.87179487 , 4529.74358974 , 4383.58974359 , 4172.30769231 , 4351.28205128 , 3818.46153846 , 3809.74358974 , 4286.66666667 , 4157.43589744 , 4306.15384615 , 1658.0 , 1699.0 , 11.498 , 0.0 , 0.0 , 0.0 , 0.0 , 

8.0 , 3950.25641026 , 4351.28205128 , 4389.74358974 , 4192.82051282 , 4333.84615385 , 4533.84615385 , 4383.58974359 , 4173.33333333 , 4353.33333333 , 3818.46153846 , 3809.23076923 , 4288.71794872 , 4159.48717949 , 4305.64102564 , 1659.0 , 1697.0 , 11.498 , 0.0 , 0.0 , 0.0 , 0.0 , 

9.0 , 3951.79487179 , 4349.74358974 , 4393.33333333 , 4193.84615385 , 4334.35897436 , 4538.46153846 , 4384.1025641 , 4174.35897436 , 4352.82051282 , 3818.46153846 , 3808.71794872 , 4290.25641026 , 4159.48717949 , 4304.1025641 , 1659.0 , 1698.0 , 11.514 , 0.0 , 0.0 , 0.0 , 0.0 , 

10.0 , 3952.30769231 , 4350.76923077 , 4392.82051282 , 4195.8974359 , 4336.41025641 , 4532.82051282 , 4386.66666667 , 4172.82051282 , 4349.23076923 , 3818.46153846 , 3808.20512821 , 4288.20512821 , 4156.92307692 , 4300.51282051 , 1660.0 , 1698.0 , 11.514 , 0.0 , 0.0 , 0.0 , 0.0 , 

11.0 , 3950.25641026 , 4351.79487179 , 4392.82051282 , 4196.41025641 , 4336.41025641 , 4526.66666667 , 4384.61538462 , 4170.76923077 , 4350.25641026 , 3818.46153846 , 3806.66666667 , 4287.69230769 , 4156.92307692 , 4300.51282051 , 1658.0 , 1698.0 , 11.529 , 0.0 , 0.0 , 0.0 , 0.0 , 

12.0 , 3949.23076923 , 4351.28205128 , 4393.84615385 , 4193.33333333 , 4335.8974359 , 4532.82051282 , 4383.07692308 , 4172.82051282 , 4353.84615385 , 3818.46153846 , 3807.17948718 , 4288.20512821 , 4158.97435897 , 4304.1025641 , 1659.0 , 1699.0 , 11.529 , 0.0 , 0.0 , 0.0 , 0.0 , 

13.0 , 3951.28205128 , 4351.28205128 , 4390.76923077 , 4191.28205128 , 4336.41025641 , 4534.87179487 , 4383.07692308 , 4174.35897436 , 4351.79487179 , 3818.46153846 , 3808.71794872 , 4286.66666667 , 4158.97435897 , 4305.12820513 , 1659.0 , 1698.0 , 11.545 , 0.0 , 0.0 , 0.0 , 0.0 , 

14.0 , 3951.79487179 , 4352.82051282 , 4383.07692308 , 4192.30769231 , 4336.92307692 , 4532.30769231 , 4381.02564103 , 4173.84615385 , 4352.30769231 , 3818.46153846 , 3808.71794872 , 4286.15384615 , 4157.43589744 , 4303.07692308 , 1659.0 , 1699.0 , 11.545 , 0.0 , 0.0 , 0.0 , 0.0 , 

15.0 , 3951.79487179 , 4354.87179487 , 4382.56410256 , 4191.79487179 , 4336.41025641 , 4536.92307692 , 4381.53846154 , 4172.82051282 , 4356.41025641 , 3818.46153846 , 3808.20512821 , 4286.66666667 , 4157.94871795 , 4303.07692308 , 1659.0 , 1698.0 , 11.56 , 0.0 , 0.0 , 0.0 , 0.0 , 

16.0 , 3950.76923077 , 4353.84615385 , 4386.66666667 , 4189.74358974 , 4334.87179487 , 4536.92307692 , 4383.07692308 , 4171.79487179 , 4355.8974359 , 3818.46153846 , 3808.71794872 , 4286.15384615 , 4160.0 , 4303.07692308 , 1659.0 , 1698.0 , 11.56 , 0.0 , 0.0 , 0.0 , 0.0 , 

17.0 , 3950.76923077 , 4350.76923077 , 4388.20512821 , 4190.76923077 , 4334.35897436 , 4530.25641026 , 4382.05128205 , 4174.35897436 , 4352.82051282 , 3818.46153846 , 3809.74358974 , 4285.64102564 , 4159.48717949 , 4303.58974359 , 1659.0 , 1698.0 , 11.576 , 0.0 , 0.0 , 0.0 , 0.0 , 

18.0 , 3953.33333333 , 4351.28205128 , 4387.69230769 , 4191.79487179 , 4334.87179487 , 4532.82051282 , 4383.07692308 , 4175.38461538 , 4352.82051282 , 3818.46153846 , 3810.25641026 , 4286.15384615 , 4156.92307692 , 4304.61538462 , 1658.0 , 1698.0 , 11.576 , 0.0 , 0.0 , 0.0 , 0.0 , 

19.0 , 3954.35897436 , 4353.33333333 , 4388.20512821 , 4192.82051282 , 4334.35897436 , 4537.94871795 , 4384.61538462 , 4172.30769231 , 4352.82051282 , 3818.46153846 , 3809.74358974 , 4286.66666667 , 4158.97435897 , 4307.17948718 , 1659.0 , 1697.0 , 11.592 , 0.0 , 0.0 , 0.0 , 0.0 , 

20.0 , 3951.28205128 , 4351.28205128 , 4389.23076923 , 4193.33333333 , 4334.87179487 , 4534.87179487 , 4382.56410256 , 4173.33333333 , 4352.82051282 , 3818.46153846 , 3808.71794872 , 4287.17948718 , 4158.97435897 , 4306.66666667 , 1658.0 , 1699.0 , 11.592 , 0.0 , 0.0 , 0.0 , 0.0 , 

21.0 , 3950.76923077 , 4351.28205128 , 4388.20512821 , 4193.33333333 , 4336.92307692 , 4533.33333333 , 4382.56410256 , 4175.8974359 , 4352.82051282 , 3818.46153846 , 3810.25641026 , 4288.20512821 , 4154.35897436 , 4303.58974359 , 1660.0 , 1698.0 , 11.607 , 0.0 , 0.0 , 0.0 , 0.0 , 

22.0 , 3952.82051282 , 4354.35897436 , 4389.23076923 , 4192.30769231 , 4335.38461538 , 4535.38461538 , 4385.12820513 , 4174.35897436 , 4352.30769231 , 3818.46153846 , 3810.25641026 , 4286.15384615 , 4154.87179487 , 4303.58974359 , 1659.0 , 1698.0 , 11.607 , 0.0 , 0.0 , 0.0 , 0.0 , 

23.0 , 3949.23076923 , 4350.76923077 , 4390.25641026 , 4190.76923077 , 4332.82051282 , 4534.35897436 , 4384.61538462 , 4171.79487179 , 4352.30769231 , 3818.46153846 , 3807.17948718 , 4286.15384615 , 4158.46153846 , 4305.12820513 , 1660.0 , 1699.0 , 11.623 , 0.0 , 0.0 , 0.0 , 0.0 , 

24.0 , 3947.17948718 , 4348.20512821 , 4391.79487179 , 4192.30769231 , 4333.33333333 , 4534.35897436 , 4383.58974359 , 4173.33333333 , 4351.79487179 , 3818.46153846 , 3807.69230769 , 4290.25641026 , 4155.38461538 , 4303.58974359 , 1659.0 , 1697.0 , 11.623 , 0.0 , 0.0 , 0.0 , 0.0 , 

25.0 , 3948.71794872 , 4349.23076923 , 4394.35897436 , 4194.87179487 , 4334.35897436 , 4534.35897436 , 4383.58974359 , 4174.35897436 , 4352.30769231 , 3818.46153846 , 3810.25641026 , 4291.28205128 , 4154.35897436 , 4300.0 , 1659.0 , 1699.0 , 11.638 , 0.0 , 0.0 , 0.0 , 0.0 , 

26.0 , 3949.23076923 , 4349.74358974 , 4397.94871795 , 4194.35897436 , 4334.87179487 , 4529.74358974 , 4383.07692308 , 4173.84615385 , 4352.30769231 , 3818.46153846 , 3809.74358974 , 4289.74358974 , 4157.94871795 , 4302.05128205 , 1659.0 , 1698.0 , 11.638 , 0.0 , 0.0 , 0.0 , 0.0 , 

27.0 , 3948.71794872 , 4350.25641026 , 4399.48717949 , 4194.35897436 , 4335.38461538 , 4528.20512821 , 4384.61538462 , 4173.84615385 , 4351.28205128 , 3818.46153846 , 3807.69230769 , 4289.74358974 , 4157.43589744 , 4306.15384615 , 1658.0 , 1699.0 , 11.654 , 0.0 , 0.0 , 0.0 , 0.0 , 

28.0 , 3949.23076923 , 4349.74358974 , 4395.8974359 , 4194.87179487 , 4334.87179487 , 4532.82051282 , 4384.61538462 , 4174.35897436 , 4350.76923077 , 3818.46153846 , 3808.71794872 , 4290.76923077 , 4156.41025641 , 4305.64102564 , 1659.0 , 1698.0 , 11.654 , 0.0 , 0.0 , 0.0 , 0.0 , 

29.0 , 3949.23076923 , 4348.71794872 , 4390.25641026 , 4192.30769231 , 4334.87179487 , 4536.41025641 , 4382.56410256 , 4173.84615385 , 4351.79487179 , 3818.46153846 , 3809.23076923 , 4289.74358974 , 4156.92307692 , 4304.1025641 , 1659.0 , 1698.0 , 11.67 , 0.0 , 0.0 , 0.0 , 0.0 , 

30.0 , 3949.74358974 , 4350.25641026 , 4387.17948718 , 4190.76923077 , 4334.87179487 , 4534.87179487 , 4383.07692308 , 4173.84615385 , 4351.79487179 , 3818.46153846 , 3808.20512821 , 4287.17948718 , 4157.94871795 , 4304.61538462 , 1659.0 , 1698.0 , 11.67 , 0.0 , 0.0 , 0.0 , 0.0 , 

31.0 , 3950.76923077 , 4352.30769231 , 4386.66666667 , 4191.28205128 , 4335.38461538 , 4534.35897436 , 4385.12820513 , 4175.38461538 , 4351.79487179 , 3818.46153846 , 3807.17948718 , 4284.61538462 , 4157.94871795 , 4304.61538462 , 1658.0 , 1699.0 , 11.685 , 0.0 , 0.0 , 0.0 , 0.0 , 

32.0 , 3950.76923077 , 4352.30769231 , 4385.12820513 , 4189.74358974 , 4336.41025641 , 4534.87179487 , 4384.1025641 , 4174.87179487 , 4353.33333333 , 3818.46153846 , 3808.20512821 , 4285.12820513 , 4158.46153846 , 4303.58974359 , 1659.0 , 1698.0 , 11.685 , 0.0 , 0.0 , 0.0 , 0.0 , 

33.0 , 3951.28205128 , 4350.76923077 , 4384.1025641 , 4189.23076923 , 4336.92307692 , 4534.87179487 , 4382.56410256 , 4174.87179487 , 4352.82051282 , 3818.46153846 , 3809.74358974 , 4286.15384615 , 4158.97435897 , 4304.1025641 , 1658.0 , 1698.0 , 11.701 , 0.0 , 0.0 , 0.0 , 0.0 , 

34.0 , 3951.79487179 , 4349.23076923 , 4388.20512821 , 4192.82051282 , 4335.38461538 , 4534.87179487 , 4384.1025641 , 4174.87179487 , 4351.79487179 , 3818.46153846 , 3810.25641026 , 4287.17948718 , 4156.92307692 , 4305.12820513 , 1659.0 , 1699.0 , 11.701 , 0.0 , 0.0 , 0.0 , 0.0 , 

35.0 , 3949.23076923 , 4349.74358974 , 4392.30769231 , 4195.38461538 , 4336.92307692 , 4534.87179487 , 4384.1025641 , 4171.79487179 , 4351.79487179 , 3818.46153846 , 3808.20512821 , 4288.20512821 , 4156.92307692 , 4305.12820513 , 1659.0 , 1699.0 , 11.716 , 0.0 , 0.0 , 0.0 , 0.0 , 

36.0 , 3948.71794872 , 4351.79487179 , 4392.30769231 , 4195.38461538 , 4336.41025641 , 4535.8974359 , 4384.61538462 , 4170.76923077 , 4351.28205128 , 3818.46153846 , 3807.17948718 , 4286.15384615 , 4158.97435897 , 4304.1025641 , 1659.0 , 1699.0 , 11.716 , 0.0 , 0.0 , 0.0 , 0.0 , 

37.0 , 3951.79487179 , 4350.76923077 , 4391.79487179 , 4192.82051282 , 4333.84615385 , 4536.41025641 , 4385.64102564 , 4173.33333333 , 4351.28205128 , 3818.46153846 , 3807.17948718 , 4285.64102564 , 4157.43589744 , 4302.56410256 , 1659.0 , 1697.0 , 11.732 , 0.0 , 0.0 , 0.0 , 0.0 , 

38.0 , 3951.28205128 , 4351.28205128 , 4391.79487179 , 4189.23076923 , 4334.87179487 , 4533.84615385 , 4385.12820513 , 4173.84615385 , 4352.82051282 , 3818.46153846 , 3808.20512821 , 4286.66666667 , 4154.87179487 , 4302.56410256 , 1659.0 , 1698.0 , 11.732 , 0.0 , 0.0 , 0.0 , 0.0 , 

39.0 , 3948.20512821 , 4352.82051282 , 4391.28205128 , 4191.28205128 , 4336.92307692 , 4531.79487179 , 4384.1025641 , 4171.79487179 , 4352.30769231 , 3818.46153846 , 3809.74358974 , 4287.17948718 , 4157.94871795 , 4303.07692308 , 1659.0 , 1697.0 , 11.748 , 0.0 , 0.0 , 0.0 , 0.0 , 

40.0 , 3947.69230769 , 4351.28205128 , 4390.25641026 , 4193.84615385 , 4334.35897436 , 4534.35897436 , 4385.64102564 , 4172.82051282 , 4351.79487179 , 3818.46153846 , 3808.71794872 , 4288.20512821 , 4160.51282051 , 4304.1025641 , 1659.0 , 1698.0 , 11.748 , 0.0 , 0.0 , 0.0 , 0.0 , 

41.0 , 3948.71794872 , 4351.28205128 , 4389.23076923 , 4190.76923077 , 4333.33333333 , 4536.41025641 , 4386.66666667 , 4173.33333333 , 4351.79487179 , 3818.46153846 , 3807.17948718 , 4286.66666667 , 4158.46153846 , 4303.58974359 , 1659.0 , 1699.0 , 11.763 , 0.0 , 0.0 , 0.0 , 0.0 , 

42.0 , 3948.71794872 , 4354.35897436 , 4387.17948718 , 4189.74358974 , 4335.38461538 , 4535.38461538 , 4385.64102564 , 4171.79487179 , 4351.79487179 , 3818.46153846 , 3807.17948718 , 4282.56410256 , 4157.94871795 , 4303.07692308 , 1659.0 , 1699.0 , 11.763 , 0.0 , 0.0 , 0.0 , 0.0 , 

43.0 , 3949.23076923 , 4353.84615385 , 4387.17948718 , 4192.82051282 , 4334.87179487 , 4535.38461538 , 4382.56410256 , 4170.76923077 , 4351.79487179 , 3818.46153846 , 3807.17948718 , 4283.58974359 , 4159.48717949 , 4305.64102564 , 1659.0 , 1698.0 , 11.783 , 0.0 , 0.0 , 0.0 , 0.0 , 

44.0 , 3950.76923077 , 4351.28205128 , 4389.74358974 , 4193.33333333 , 4334.35897436 , 4534.87179487 , 4381.53846154 , 4172.30769231 , 4351.28205128 , 3818.46153846 , 3806.15384615 , 4287.69230769 , 4157.94871795 , 4307.17948718 , 1659.0 , 1698.0 , 11.785 , 0.0 , 0.0 , 0.0 , 0.0 , 

45.0 , 3950.76923077 , 4352.30769231 , 4390.25641026 , 4190.76923077 , 4335.8974359 , 4534.87179487 , 4383.07692308 , 4175.38461538 , 4351.28205128 , 3818.46153846 , 3807.69230769 , 4285.64102564 , 4155.8974359 , 4303.58974359 , 1659.0 , 1699.0 , 11.785 , 0.0 , 0.0 , 0.0 , 0.0 , 

46.0 , 3948.71794872 , 4351.79487179 , 4390.76923077 , 4190.25641026 , 4334.35897436 , 4536.41025641 , 4385.12820513 , 4174.35897436 , 4352.82051282 , 3818.46153846 , 3810.76923077 , 4283.58974359 , 4158.97435897 , 4302.05128205 , 1659.0 , 1697.0 , 11.8 , 0.0 , 0.0 , 0.0 , 0.0 , 

47.0 , 3950.25641026 , 4349.23076923 , 4391.28205128 , 4190.76923077 , 4333.33333333 , 4531.79487179 , 4383.58974359 , 4170.25641026 , 4352.82051282 , 3818.46153846 , 3809.23076923 , 4287.69230769 , 4160.51282051 , 4304.61538462 , 1658.0 , 1699.0 , 11.8 , 0.0 , 0.0 , 0.0 , 0.0 , 

48.0 , 3952.82051282 , 4348.20512821 , 4389.74358974 , 4192.82051282 , 4335.8974359 , 4529.74358974 , 4382.05128205 , 4171.28205128 , 4353.33333333 , 3818.46153846 , 3805.12820513 , 4291.28205128 , 4158.46153846 , 4304.1025641 , 1659.0 , 1697.0 , 11.816 , 0.0 , 0.0 , 0.0 , 0.0 , 

49.0 , 3951.79487179 , 4351.28205128 , 4390.76923077 , 4193.84615385 , 4336.41025641 , 4536.41025641 , 4382.56410256 , 4174.35897436 , 4354.87179487 , 3818.46153846 , 3806.66666667 , 4289.74358974 , 4158.46153846 , 4302.56410256 , 1659.0 , 1698.0 , 11.816 , 0.0 , 0.0 , 0.0 , 0.0 , 

50.0 , 3948.20512821 , 4352.30769231 , 4391.79487179 , 4191.28205128 , 4335.38461538 , 4536.41025641 , 4384.1025641 , 4172.30769231 , 4352.30769231 , 3818.46153846 , 3810.25641026 , 4287.17948718 , 4156.41025641 , 4302.56410256 , 1660.0 , 1699.0 , 11.832 , 0.0 , 0.0 , 0.0 , 0.0 , 

51.0 , 3948.71794872 , 4349.74358974 , 4389.74358974 , 4190.76923077 , 4337.94871795 , 4532.82051282 , 4384.61538462 , 4170.25641026 , 4350.25641026 , 3818.46153846 , 3808.71794872 , 4286.15384615 , 4153.84615385 , 4302.05128205 , 1659.0 , 1698.0 , 11.832 , 0.0 , 0.0 , 0.0 , 0.0 , 

52.0 , 3949.23076923 , 4348.20512821 , 4388.71794872 , 4193.33333333 , 4335.38461538 , 4535.8974359 , 4385.12820513 , 4173.84615385 , 4352.82051282 , 3818.46153846 , 3806.66666667 , 4286.66666667 , 4155.8974359 , 4302.05128205 , 1659.0 , 1698.0 , 11.847 , 0.0 , 0.0 , 0.0 , 0.0 , 

53.0 , 3949.23076923 , 4352.30769231 , 4388.20512821 , 4191.79487179 , 4333.33333333 , 4534.35897436 , 4386.15384615 , 4175.8974359 , 4353.84615385 , 3818.46153846 , 3807.69230769 , 4286.66666667 , 4160.51282051 , 4303.58974359 , 1658.0 , 1698.0 , 11.847 , 0.0 , 0.0 , 0.0 , 0.0 , 

54.0 , 3952.30769231 , 4354.35897436 , 4384.61538462 , 4189.74358974 , 4335.8974359 , 4529.74358974 , 4384.1025641 , 4173.84615385 , 4353.84615385 , 3818.46153846 , 3807.69230769 , 4286.15384615 , 4160.0 , 4303.58974359 , 1659.0 , 1698.0 , 11.863 , 0.0 , 0.0 , 0.0 , 0.0 , 

55.0 , 3953.33333333 , 4352.82051282 , 4383.07692308 , 4191.28205128 , 4335.8974359 , 4534.35897436 , 4382.05128205 , 4172.82051282 , 4354.87179487 , 3818.46153846 , 3807.17948718 , 4286.15384615 , 4157.43589744 , 4304.1025641 , 1659.0 , 1698.0 , 11.863 , 0.0 , 0.0 , 0.0 , 0.0 , 

56.0 , 3951.79487179 , 4352.30769231 , 4384.1025641 , 4191.79487179 , 4334.35897436 , 4536.92307692 , 4382.05128205 , 4174.35897436 , 4354.35897436 , 3818.46153846 , 3807.69230769 , 4285.64102564 , 4156.92307692 , 4308.20512821 , 1660.0 , 1698.0 , 11.878 , 0.0 , 0.0 , 0.0 , 0.0 , 

57.0 , 3950.76923077 , 4353.33333333 , 4384.1025641 , 4190.25641026 , 4336.92307692 , 4533.84615385 , 4383.07692308 , 4174.35897436 , 4353.33333333 , 3818.46153846 , 3807.69230769 , 4284.61538462 , 4157.43589744 , 4309.23076923 , 1659.0 , 1698.0 , 11.878 , 0.0 , 0.0 , 0.0 , 0.0 , 

58.0 , 3950.25641026 , 4352.82051282 , 4385.64102564 , 4191.28205128 , 4338.46153846 , 4535.38461538 , 4383.07692308 , 4173.84615385 , 4351.79487179 , 3818.46153846 , 3808.71794872 , 4285.12820513 , 4157.94871795 , 4305.64102564 , 1659.0 , 1698.0 , 11.894 , 0.0 , 0.0 , 0.0 , 0.0 , 

59.0 , 3950.25641026 , 4351.28205128 , 4388.20512821 , 4193.84615385 , 4335.38461538 , 4536.41025641 , 4382.56410256 , 4175.8974359 , 4352.82051282 , 3818.46153846 , 3809.74358974 , 4285.12820513 , 4157.43589744 , 4303.58974359 , 1659.0 , 1699.0 , 11.894 , 0.0 , 0.0 , 0.0 , 0.0 , 

60.0 , 3951.79487179 , 4350.25641026 , 4388.71794872 , 4194.35897436 , 4335.8974359 , 4529.74358974 , 4382.05128205 , 4175.38461538 , 4354.87179487 , 3818.46153846 , 3808.20512821 , 4286.15384615 , 4156.41025641 , 4304.1025641 , 1659.0 , 1698.0 , 11.91 , 0.0 , 0.0 , 0.0 , 0.0 , 

61.0 , 3951.28205128 , 4350.76923077 , 4388.71794872 , 4192.82051282 , 4336.92307692 , 4531.79487179 , 4383.07692308 , 4173.33333333 , 4352.82051282 , 3818.46153846 , 3806.66666667 , 4287.69230769 , 4156.41025641 , 4305.64102564 , 1659.0 , 1698.0 , 11.91 , 0.0 , 0.0 , 0.0 , 0.0 , 

62.0 , 3951.28205128 , 4353.33333333 , 4388.71794872 , 4193.33333333 , 4334.35897436 , 4538.46153846 , 4383.58974359 , 4172.30769231 , 4349.23076923 , 3818.46153846 , 3807.69230769 , 4287.69230769 , 4158.46153846 , 4304.1025641 , 1660.0 , 1698.0 , 11.925 , 0.0 , 0.0 , 0.0 , 0.0 , 

63.0 , 3951.28205128 , 4352.82051282 , 4389.23076923 , 4194.35897436 , 4333.33333333 , 4535.8974359 , 4383.07692308 , 4172.82051282 , 4352.30769231 , 3818.46153846 , 3808.20512821 , 4287.17948718 , 4159.48717949 , 4301.53846154 , 1658.0 , 1699.0 , 11.925 , 0.0 , 0.0 , 0.0 , 0.0 , 

64.0 , 3950.76923077 , 4350.76923077 , 4390.25641026 , 4193.33333333 , 4333.84615385 , 4533.33333333 , 4383.58974359 , 4172.82051282 , 4353.33333333 , 3818.46153846 , 3807.69230769 , 4288.71794872 , 4156.92307692 , 4303.07692308 , 1659.0 , 1698.0 , 11.941 , 0.0 , 0.0 , 0.0 , 0.0 , 

65.0 , 3951.28205128 , 4350.25641026 , 4386.66666667 , 4191.79487179 , 4333.84615385 , 4536.92307692 , 4384.61538462 , 4172.82051282 , 4351.79487179 , 3818.46153846 , 3808.20512821 , 4286.66666667 , 4157.43589744 , 4307.17948718 , 1659.0 , 1697.0 , 11.941 , 0.0 , 0.0 , 0.0 , 0.0 , 

66.0 , 3950.76923077 , 4353.33333333 , 4383.58974359 , 4190.25641026 , 4334.35897436 , 4533.84615385 , 4383.58974359 , 4173.84615385 , 4352.82051282 , 3818.46153846 , 3808.71794872 , 4284.1025641 , 4159.48717949 , 4305.64102564 , 1659.0 , 1699.0 , 11.956 , 0.0 , 0.0 , 0.0 , 0.0 , 

67.0 , 3949.74358974 , 4353.33333333 , 4385.64102564 , 4190.25641026 , 4336.92307692 , 4529.23076923 , 4381.53846154 , 4174.87179487 , 4351.28205128 , 3818.46153846 , 3808.71794872 , 4285.12820513 , 4160.0 , 4301.53846154 , 1660.0 , 1697.0 , 11.956 , 0.0 , 0.0 , 0.0 , 0.0 , 

68.0 , 3951.28205128 , 4349.74358974 , 4386.66666667 , 4191.28205128 , 4335.8974359 , 4533.33333333 , 4381.53846154 , 4173.33333333 , 4349.23076923 , 3818.46153846 , 3810.25641026 , 4285.64102564 , 4159.48717949 , 4304.1025641 , 1659.0 , 1699.0 , 11.972 , 0.0 , 0.0 , 0.0 , 0.0 , 

69.0 , 3950.25641026 , 4351.28205128 , 4387.17948718 , 4192.30769231 , 4335.8974359 , 4535.8974359 , 4382.56410256 , 4171.79487179 , 4352.30769231 , 3818.46153846 , 3811.28205128 , 4285.12820513 , 4158.97435897 , 4307.17948718 , 1659.0 , 1699.0 , 11.972 , 0.0 , 0.0 , 0.0 , 0.0 , 

70.0 , 3947.69230769 , 4354.35897436 , 4388.71794872 , 4193.33333333 , 4338.46153846 , 4532.30769231 , 4382.56410256 , 4173.33333333 , 4354.87179487 , 3818.46153846 , 3809.23076923 , 4286.15384615 , 4160.0 , 4304.61538462 , 1659.0 , 1698.0 , 11.988 , 0.0 , 0.0 , 0.0 , 0.0 , 

71.0 , 3950.25641026 , 4352.82051282 , 4387.17948718 , 4194.35897436 , 4336.92307692 , 4531.79487179 , 4384.1025641 , 4174.87179487 , 4352.82051282 , 3818.46153846 , 3807.69230769 , 4287.17948718 , 4157.94871795 , 4302.56410256 , 1660.0 , 1698.0 , 11.988 , 0.0 , 0.0 , 0.0 , 0.0 , 

72.0 , 3953.33333333 , 4351.28205128 , 4386.66666667 , 4193.33333333 , 4334.35897436 , 4534.87179487 , 4385.64102564 , 4174.35897436 , 4351.28205128 , 3818.46153846 , 3809.23076923 , 4286.15384615 , 4154.35897436 , 4304.61538462 , 1659.0 , 1698.0 , 12.003 , 0.0 , 0.0 , 0.0 , 0.0 , 

73.0 , 3951.79487179 , 4352.30769231 , 4389.23076923 , 4192.82051282 , 4335.38461538 , 4535.8974359 , 4384.61538462 , 4173.84615385 , 4351.79487179 , 3818.46153846 , 3808.20512821 , 4286.15384615 , 4156.41025641 , 4306.15384615 , 1659.0 , 1698.0 , 12.003 , 0.0 , 0.0 , 0.0 , 0.0 , 

74.0 , 3950.25641026 , 4352.82051282 , 4386.66666667 , 4193.84615385 , 4335.38461538 , 4534.87179487 , 4385.12820513 , 4173.84615385 , 4351.79487179 , 3818.46153846 , 3806.15384615 , 4287.69230769 , 4160.0 , 4304.61538462 , 1659.0 , 1697.0 , 12.019 , 0.0 , 0.0 , 0.0 , 0.0 , 

75.0 , 3952.30769231 , 4353.33333333 , 4385.64102564 , 4191.79487179 , 4334.87179487 , 4534.35897436 , 4385.64102564 , 4173.33333333 , 4351.28205128 , 3818.46153846 , 3807.69230769 , 4287.69230769 , 4160.0 , 4303.58974359 , 1659.0 , 1698.0 , 12.019 , 0.0 , 0.0 , 0.0 , 0.0 , 

76.0 , 3952.82051282 , 4352.30769231 , 4388.71794872 , 4190.76923077 , 4335.38461538 , 4535.8974359 , 4383.07692308 , 4172.82051282 , 4350.76923077 , 3818.46153846 , 3808.20512821 , 4287.17948718 , 4157.94871795 , 4304.61538462 , 1660.0 , 1698.0 , 12.034 , 0.0 , 0.0 , 0.0 , 0.0 , 

77.0 , 3951.79487179 , 4351.28205128 , 4389.23076923 , 4192.82051282 , 4336.41025641 , 4536.41025641 , 4383.07692308 , 4172.82051282 , 4351.79487179 , 3818.46153846 , 3807.69230769 , 4288.20512821 , 4157.94871795 , 4306.66666667 , 1659.0 , 1699.0 , 12.034 , 0.0 , 0.0 , 0.0 , 0.0 , 

78.0 , 3950.25641026 , 4352.30769231 , 4389.23076923 , 4192.82051282 , 4336.41025641 , 4534.87179487 , 4385.12820513 , 4174.87179487 , 4352.82051282 , 3818.46153846 , 3809.74358974 , 4287.69230769 , 4157.94871795 , 4305.64102564 , 1660.0 , 1698.0 , 12.05 , 0.0 , 0.0 , 0.0 , 0.0 , 

79.0 , 3949.74358974 , 4352.82051282 , 4390.76923077 , 4190.76923077 , 4335.8974359 , 4533.84615385 , 4383.58974359 , 4174.87179487 , 4352.30769231 , 3818.46153846 , 3810.76923077 , 4287.17948718 , 4157.94871795 , 4302.56410256 , 1658.0 , 1699.0 , 12.05 , 0.0 , 0.0 , 0.0 , 0.0 , 

80.0 , 3949.23076923 , 4350.25641026 , 4390.25641026 , 4192.30769231 , 4337.94871795 , 4534.87179487 , 4382.05128205 , 4171.28205128 , 4352.30769231 , 3818.46153846 , 3808.20512821 , 4287.17948718 , 4156.41025641 , 4303.07692308 , 1659.0 , 1699.0 , 12.066 , 0.0 , 0.0 , 0.0 , 0.0 , 

81.0 , 3949.74358974 , 4350.76923077 , 4388.20512821 , 4193.33333333 , 4339.48717949 , 4535.38461538 , 4383.58974359 , 4169.74358974 , 4352.30769231 , 3818.46153846 , 3807.69230769 , 4287.69230769 , 4156.41025641 , 4306.66666667 , 1659.0 , 1698.0 , 12.066 , 0.0 , 0.0 , 0.0 , 0.0 , 

82.0 , 3950.76923077 , 4352.82051282 , 4388.71794872 , 4191.79487179 , 4334.87179487 , 4534.87179487 , 4382.56410256 , 4171.79487179 , 4350.76923077 , 3818.46153846 , 3809.23076923 , 4286.66666667 , 4156.41025641 , 4305.64102564 , 1659.0 , 1699.0 , 12.081 , 0.0 , 0.0 , 0.0 , 0.0 , 

83.0 , 3950.25641026 , 4350.76923077 , 4390.25641026 , 4191.28205128 , 4332.82051282 , 4534.35897436 , 4381.53846154 , 4173.84615385 , 4350.25641026 , 3818.46153846 , 3808.71794872 , 4288.20512821 , 4155.8974359 , 4303.07692308 , 1658.0 , 1698.0 , 12.081 , 0.0 , 0.0 , 0.0 , 0.0 , 

84.0 , 3949.74358974 , 4347.69230769 , 4389.74358974 , 4192.30769231 , 4335.38461538 , 4534.35897436 , 4383.58974359 , 4174.35897436 , 4353.33333333 , 3818.46153846 , 3807.17948718 , 4289.23076923 , 4157.94871795 , 4303.07692308 , 1659.0 , 1698.0 , 12.097 , 0.0 , 0.0 , 0.0 , 0.0 , 

85.0 , 3949.23076923 , 4350.25641026 , 4388.71794872 , 4192.30769231 , 4334.87179487 , 4534.87179487 , 4384.61538462 , 4172.82051282 , 4353.33333333 , 3818.46153846 , 3807.69230769 , 4287.17948718 , 4159.48717949 , 4303.07692308 , 1659.0 , 1698.0 , 12.097 , 0.0 , 0.0 , 0.0 , 0.0 , 

86.0 , 3949.23076923 , 4352.30769231 , 4388.20512821 , 4191.79487179 , 4332.30769231 , 4535.8974359 , 4383.07692308 , 4172.30769231 , 4350.76923077 , 3818.46153846 , 3808.71794872 , 4286.15384615 , 4157.43589744 , 4304.1025641 , 1659.0 , 1699.0 , 12.112 , 0.0 , 0.0 , 0.0 , 0.0 , 

87.0 , 3951.28205128 , 4351.28205128 , 4387.17948718 , 4192.82051282 , 4332.30769231 , 4535.8974359 , 4383.07692308 , 4172.30769231 , 4350.76923077 , 3818.46153846 , 3808.71794872 , 4287.17948718 , 4156.41025641 , 4304.1025641 , 1659.0 , 1697.0 , 12.112 , 0.0 , 0.0 , 0.0 , 0.0 , 

88.0 , 3953.33333333 , 4352.82051282 , 4387.17948718 , 4192.82051282 , 4336.41025641 , 4533.84615385 , 4385.12820513 , 4172.30769231 , 4351.79487179 , 3818.46153846 , 3807.69230769 , 4287.69230769 , 4157.43589744 , 4304.1025641 , 1658.0 , 1699.0 , 12.128 , 0.0 , 0.0 , 0.0 , 0.0 , 

89.0 , 3951.79487179 , 4354.87179487 , 4387.69230769 , 4192.30769231 , 4338.46153846 , 4535.38461538 , 4385.64102564 , 4171.79487179 , 4351.79487179 , 3818.46153846 , 3807.69230769 , 4288.20512821 , 4158.97435897 , 4303.58974359 , 1660.0 , 1698.0 , 12.144 , 0.0 , 0.0 , 0.0 , 0.0 , 

90.0 , 3950.25641026 , 4353.84615385 , 4385.64102564 , 4190.76923077 , 4338.97435897 , 4536.92307692 , 4385.64102564 , 4172.82051282 , 4351.79487179 , 3818.46153846 , 3807.69230769 , 4288.20512821 , 4160.51282051 , 4303.07692308 , 1659.0 , 1698.0 , 12.144 , 0.0 , 0.0 , 0.0 , 0.0 , 

91.0 , 3950.76923077 , 4352.82051282 , 4385.64102564 , 4189.74358974 , 4336.41025641 , 4533.33333333 , 4385.12820513 , 4173.84615385 , 4351.79487179 , 3818.46153846 , 3806.15384615 , 4285.64102564 , 4160.51282051 , 4302.56410256 , 1659.0 , 1698.0 , 12.144 , 0.0 , 0.0 , 0.0 , 0.0 , 

92.0 , 3951.28205128 , 4353.33333333 , 4386.15384615 , 4191.28205128 , 4333.33333333 , 4533.33333333 , 4384.1025641 , 4172.82051282 , 4352.30769231 , 3818.46153846 , 3805.12820513 , 4284.1025641 , 4158.46153846 , 4302.05128205 , 1658.0 , 1698.0 , 12.159 , 0.0 , 0.0 , 0.0 , 0.0 , 

93.0 , 3951.28205128 , 4352.82051282 , 4382.56410256 , 4191.79487179 , 4334.35897436 , 4534.35897436 , 4384.61538462 , 4173.84615385 , 4352.30769231 , 3818.46153846 , 3805.64102564 , 4284.1025641 , 4158.97435897 , 4302.56410256 , 1659.0 , 1699.0 , 12.175 , 0.0 , 0.0 , 0.0 , 0.0 , 

94.0 , 3951.79487179 , 4350.76923077 , 4383.58974359 , 4190.25641026 , 4335.8974359 , 4529.74358974 , 4385.12820513 , 4174.35897436 , 4351.79487179 , 3818.46153846 , 3808.71794872 , 4283.58974359 , 4160.0 , 4306.15384615 , 1659.0 , 1697.0 , 12.175 , 0.0 , 0.0 , 0.0 , 0.0 , 

95.0 , 3951.79487179 , 4348.71794872 , 4389.23076923 , 4190.76923077 , 4334.35897436 , 4531.28205128 , 4384.1025641 , 4171.79487179 , 4352.82051282 , 3818.46153846 , 3810.25641026 , 4283.07692308 , 4160.0 , 4306.15384615 , 1659.0 , 1699.0 , 12.175 , 0.0 , 0.0 , 0.0 , 0.0 , 

96.0 , 3951.28205128 , 4350.25641026 , 4389.74358974 , 4193.33333333 , 4333.84615385 , 4537.43589744 , 4384.61538462 , 4170.76923077 , 4352.82051282 , 3818.46153846 , 3808.71794872 , 4285.64102564 , 4158.97435897 , 4302.56410256 , 1660.0 , 1698.0 , 12.19 , 0.0 , 0.0 , 0.0 , 0.0 , 

97.0 , 3951.79487179 , 4351.79487179 , 4385.64102564 , 4192.30769231 , 4337.43589744 , 4536.41025641 , 4385.64102564 , 4174.35897436 , 4352.82051282 , 3818.46153846 , 3807.17948718 , 4288.20512821 , 4157.43589744 , 4301.53846154 , 1659.0 , 1698.0 , 12.19 , 0.0 , 0.0 , 0.0 , 0.0 , 

98.0 , 3952.30769231 , 4349.74358974 , 4386.66666667 , 4191.28205128 , 4336.92307692 , 4533.33333333 , 4384.1025641 , 4173.84615385 , 4353.33333333 , 3818.46153846 , 3808.20512821 , 4287.69230769 , 4157.94871795 , 4303.07692308 , 1659.0 , 1698.0 , 12.206 , 0.0 , 0.0 , 0.0 , 0.0 , 

99.0 , 3952.82051282 , 4349.23076923 , 4389.23076923 , 4191.28205128 , 4332.82051282 , 4534.87179487 , 4382.56410256 , 4171.79487179 , 4351.28205128 , 3818.46153846 , 3808.71794872 , 4286.66666667 , 4157.94871795 , 4303.58974359 , 1659.0 , 1699.0 , 12.222 , 0.0 , 0.0 , 0.0 , 0.0 , 

100.0 , 3949.74358974 , 4353.33333333 , 4388.71794872 , 4192.30769231 , 4333.84615385 , 4535.8974359 , 4383.58974359 , 4173.84615385 , 4351.79487179 , 3818.46153846 , 3808.20512821 , 4285.64102564 , 4156.92307692 , 4305.12820513 , 1660.0 , 1698.0 , 12.222 , 0.0 , 0.0 , 0.0 , 0.0 , 

101.0 , 3946.66666667 , 4352.82051282 , 4387.17948718 , 4193.84615385 , 4335.8974359 , 4535.8974359 , 4383.58974359 , 4175.38461538 , 4353.84615385 , 3818.46153846 , 3807.69230769 , 4286.66666667 , 4158.97435897 , 4305.64102564 , 1658.0 , 1698.0 , 12.222 , 0.0 , 0.0 , 0.0 , 0.0 , 

102.0 , 3949.23076923 , 4350.76923077 , 4388.20512821 , 4192.82051282 , 4335.38461538 , 4536.41025641 , 4382.05128205 , 4172.30769231 , 4353.84615385 , 3818.46153846 , 3808.20512821 , 4287.69230769 , 4160.51282051 , 4305.12820513 , 1659.0 , 1699.0 , 12.237 , 0.0 , 0.0 , 0.0 , 0.0 , 

103.0 , 3952.30769231 , 4353.84615385 , 4389.74358974 , 4191.28205128 , 4332.30769231 , 4534.87179487 , 4383.58974359 , 4172.30769231 , 4353.84615385 , 3818.46153846 , 3808.71794872 , 4286.15384615 , 4158.97435897 , 4305.64102564 , 1659.0 , 1697.0 , 12.237 , 0.0 , 0.0 , 0.0 , 0.0 , 

104.0 , 3949.23076923 , 4353.33333333 , 4388.20512821 , 4192.30769231 , 4332.30769231 , 4534.35897436 , 4385.64102564 , 4174.35897436 , 4353.84615385 , 3818.46153846 , 3809.74358974 , 4286.15384615 , 4158.46153846 , 4305.64102564 , 1659.0 , 1699.0 , 12.253 , 0.0 , 0.0 , 0.0 , 0.0 , 

105.0 , 3947.69230769 , 4349.23076923 , 4388.71794872 , 4192.82051282 , 4336.92307692 , 4535.38461538 , 4383.07692308 , 4173.33333333 , 4351.79487179 , 3818.46153846 , 3809.23076923 , 4286.66666667 , 4156.41025641 , 4304.61538462 , 1659.0 , 1698.0 , 12.268 , 0.0 , 0.0 , 0.0 , 0.0 , 

106.0 , 3950.76923077 , 4350.76923077 , 4390.76923077 , 4191.28205128 , 4336.92307692 , 4534.87179487 , 4381.02564103 , 4173.33333333 , 4350.76923077 , 3818.46153846 , 3808.71794872 , 4286.15384615 , 4154.87179487 , 4304.61538462 , 1659.0 , 1699.0 , 12.268 , 0.0 , 0.0 , 0.0 , 0.0 , 

107.0 , 3950.76923077 , 4352.82051282 , 4388.20512821 , 4191.79487179 , 4333.33333333 , 4534.87179487 , 4382.05128205 , 4173.84615385 , 4352.82051282 , 3818.46153846 , 3809.23076923 , 4286.15384615 , 4158.97435897 , 4302.05128205 , 1659.0 , 1698.0 , 12.268 , 0.0 , 0.0 , 0.0 , 0.0 , 

108.0 , 3949.23076923 , 4351.28205128 , 4387.17948718 , 4191.79487179 , 4334.87179487 , 4536.41025641 , 4384.1025641 , 4170.76923077 , 4352.82051282 , 3818.46153846 , 3809.74358974 , 4286.66666667 , 4159.48717949 , 4301.02564103 , 1659.0 , 1699.0 , 12.284 , 0.0 , 0.0 , 0.0 , 0.0 , 

109.0 , 3951.28205128 , 4353.33333333 , 4386.66666667 , 4191.79487179 , 4336.41025641 , 4535.38461538 , 4383.58974359 , 4170.76923077 , 4351.79487179 , 3818.46153846 , 3809.23076923 , 4286.15384615 , 4156.41025641 , 4305.64102564 , 1659.0 , 1698.0 , 12.284 , 0.0 , 0.0 , 0.0 , 0.0 , 

110.0 , 3953.33333333 , 4355.8974359 , 4383.58974359 , 4192.30769231 , 4334.35897436 , 4534.87179487 , 4382.56410256 , 4175.8974359 , 4351.79487179 , 3818.46153846 , 3808.71794872 , 4286.15384615 , 4157.43589744 , 4307.17948718 , 1658.0 , 1698.0 , 12.3 , 0.0 , 0.0 , 0.0 , 0.0 , 

111.0 , 3951.28205128 , 4351.79487179 , 4383.58974359 , 4191.28205128 , 4334.35897436 , 4535.38461538 , 4383.58974359 , 4174.35897436 , 4351.79487179 , 3818.46153846 , 3808.20512821 , 4287.17948718 , 4159.48717949 , 4304.61538462 , 1659.0 , 1698.0 , 12.315 , 0.0 , 0.0 , 0.0 , 0.0 , 

112.0 , 3949.23076923 , 4350.25641026 , 4385.64102564 , 4190.25641026 , 4337.43589744 , 4534.87179487 , 4385.12820513 , 4172.30769231 , 4353.84615385 , 3818.46153846 , 3808.71794872 , 4286.15384615 , 4157.94871795 , 4304.1025641 , 1659.0 , 1699.0 , 12.315 , 0.0 , 0.0 , 0.0 , 0.0 , 

113.0 , 3950.76923077 , 4354.87179487 , 4386.15384615 , 4192.30769231 , 4336.41025641 , 4535.8974359 , 4383.58974359 , 4174.87179487 , 4352.82051282 , 3818.46153846 , 3809.74358974 , 4285.64102564 , 4158.46153846 , 4305.12820513 , 1659.0 , 1697.0 , 12.315 , 0.0 , 0.0 , 0.0 , 0.0 , 

114.0 , 3951.28205128 , 4354.35897436 , 4386.66666667 , 4192.82051282 , 4332.30769231 , 4536.41025641 , 4382.56410256 , 4174.35897436 , 4351.28205128 , 3818.46153846 , 3808.71794872 , 4285.64102564 , 4156.92307692 , 4304.1025641 , 1659.0 , 1699.0 , 12.331 , 0.0 , 0.0 , 0.0 , 0.0 , 

115.0 , 3950.76923077 , 4350.76923077 , 4386.15384615 , 4189.23076923 , 4334.35897436 , 4535.38461538 , 4384.1025641 , 4170.25641026 , 4351.79487179 , 3818.46153846 , 3807.69230769 , 4286.66666667 , 4155.38461538 , 4303.58974359 , 1659.0 , 1698.0 , 12.346 , 0.0 , 0.0 , 0.0 , 0.0 , 

116.0 , 3951.28205128 , 4350.76923077 , 4383.07692308 , 4188.20512821 , 4337.43589744 , 4535.38461538 , 4383.58974359 , 4171.79487179 , 4352.82051282 , 3818.46153846 , 3808.71794872 , 4286.15384615 , 4158.97435897 , 4305.64102564 , 1659.0 , 1699.0 , 12.346 , 0.0 , 0.0 , 0.0 , 0.0 , 

117.0 , 3950.25641026 , 4353.33333333 , 4383.58974359 , 4190.25641026 , 4334.87179487 , 4532.82051282 , 4381.53846154 , 4174.35897436 , 4352.82051282 , 3818.46153846 , 3810.25641026 , 4285.12820513 , 4161.53846154 , 4308.20512821 , 1659.0 , 1697.0 , 12.346 , 0.0 , 0.0 , 0.0 , 0.0 , 

118.0 , 3950.25641026 , 4353.84615385 , 4384.61538462 , 4189.23076923 , 4331.79487179 , 4531.79487179 , 4382.56410256 , 4172.30769231 , 4354.87179487 , 3818.46153846 , 3809.23076923 , 4287.17948718 , 4158.97435897 , 4309.74358974 , 1659.0 , 1699.0 , 12.362 , 0.0 , 0.0 , 0.0 , 0.0 , 

119.0 , 3952.82051282 , 4352.82051282 , 4383.07692308 , 4187.17948718 , 4335.38461538 , 4531.79487179 , 4384.61538462 , 4172.82051282 , 4355.38461538 , 3818.46153846 , 3809.23076923 , 4287.69230769 , 4158.97435897 , 4307.69230769 , 1659.0 , 1698.0 , 12.362 , 0.0 , 0.0 , 0.0 , 0.0 , 

120.0 , 3954.35897436 , 4353.84615385 , 4385.64102564 , 4189.23076923 , 4338.46153846 , 4531.79487179 , 4383.07692308 , 4174.87179487 , 4353.33333333 , 3818.46153846 , 3810.25641026 , 4286.15384615 , 4157.43589744 , 4305.64102564 , 1659.0 , 1698.0 , 12.378 , 0.0 , 0.0 , 0.0 , 0.0 , 

121.0 , 3951.28205128 , 4353.84615385 , 4389.23076923 , 4191.79487179 , 4336.92307692 , 4530.25641026 , 4381.53846154 , 4173.84615385 , 4352.82051282 , 3818.46153846 , 3809.74358974 , 4288.20512821 , 4155.38461538 , 4306.66666667 , 1659.0 , 1698.0 , 12.393 , 0.0 , 0.0 , 0.0 , 0.0 , 

122.0 , 3948.71794872 , 4350.25641026 , 4389.74358974 , 4193.33333333 , 4334.87179487 , 4529.23076923 , 4382.56410256 , 4172.30769231 , 4353.84615385 , 3818.46153846 , 3808.71794872 , 4290.76923077 , 4158.46153846 , 4306.66666667 , 1659.0 , 1697.0 , 12.393 , 0.0 , 0.0 , 0.0 , 0.0 , 

123.0 , 3950.25641026 , 4349.23076923 , 4392.30769231 , 4195.38461538 , 4335.8974359 , 4528.20512821 , 4384.1025641 , 4173.84615385 , 4352.30769231 , 3818.46153846 , 3808.71794872 , 4288.71794872 , 4161.53846154 , 4304.61538462 , 1659.0 , 1698.0 , 12.393 , 0.0 , 0.0 , 0.0 , 0.0 , 

124.0 , 3950.25641026 , 4351.79487179 , 4396.41025641 , 4196.92307692 , 4336.92307692 , 4530.25641026 , 4384.1025641 , 4172.82051282 , 4351.79487179 , 3818.46153846 , 3809.23076923 , 4292.30769231 , 4157.94871795 , 4304.1025641 , 1660.0 , 1698.0 , 12.409 , 0.0 , 0.0 , 0.0 , 0.0 , 

125.0 , 3947.17948718 , 4350.76923077 , 4395.38461538 , 4196.92307692 , 4334.87179487 , 4534.35897436 , 4383.58974359 , 4171.79487179 , 4352.30769231 , 3818.46153846 , 3808.71794872 , 4294.87179487 , 4154.87179487 , 4306.15384615 , 1659.0 , 1699.0 , 12.424 , 0.0 , 0.0 , 0.0 , 0.0 , 

126.0 , 3947.17948718 , 4349.74358974 , 4393.33333333 , 4195.8974359 , 4333.33333333 , 4533.84615385 , 4384.1025641 , 4171.79487179 , 4349.74358974 , 3818.46153846 , 3808.71794872 , 4290.76923077 , 4156.41025641 , 4305.12820513 , 1659.0 , 1698.0 , 12.424 , 0.0 , 0.0 , 0.0 , 0.0 , 

127.0 , 3948.20512821 , 4350.25641026 , 4395.38461538 , 4194.35897436 , 4336.92307692 , 4533.84615385 , 4385.12820513 , 4169.74358974 , 4349.23076923 , 3818.46153846 , 3808.71794872 , 4289.74358974 , 4156.41025641 , 4304.1025641 , 1659.0 , 1699.0 , 12.44 , 0.0 , 0.0 , 0.0 , 0.0 , 

128.0 , 3947.17948718 , 4349.74358974 , 4394.35897436 , 4192.82051282 , 4336.92307692 , 4534.87179487 , 4384.1025641 , 4169.23076923 , 4352.82051282 , 3818.46153846 , 3808.20512821 , 4290.76923077 , 4156.41025641 , 4305.12820513 , 1660.0 , 1698.0 , 12.44 , 0.0 , 0.0 , 0.0 , 0.0 , 

0.0 , 3946.66666667 , 4350.25641026 , 4390.76923077 , 4191.28205128 , 4331.79487179 , 4534.87179487 , 4384.61538462 , 4171.79487179 , 4352.30769231 , 3818.46153846 , 3807.17948718 , 4288.20512821 , 4157.43589744 , 4303.58974359 , 1659.0 , 1698.0 , 12.456 , 0.0 , 0.0 , 0.0 , 0.0 , 

1.0 , 3949.74358974 , 4351.79487179 , 4389.74358974 , 4191.79487179 , 4335.38461538 , 4535.38461538 , 4386.15384615 , 4172.82051282 , 4350.76923077 , 3818.46153846 , 3806.66666667 , 4285.64102564 , 4158.97435897 , 4302.56410256 , 1660.0 , 1698.0 , 12.456 , 0.0 , 0.0 , 0.0 , 0.0 , 

2.0 , 3951.79487179 , 4351.79487179 , 4386.66666667 , 4191.79487179 , 4342.56410256 , 4534.87179487 , 4385.64102564 , 4174.35897436 , 4352.30769231 , 3818.46153846 , 3808.20512821 , 4285.12820513 , 4159.48717949 , 4305.12820513 , 1658.0 , 1698.0 , 12.471 , 0.0 , 0.0 , 0.0 , 0.0 , 

3.0 , 3951.28205128 , 4352.30769231 , 4383.58974359 , 4190.25641026 , 4337.43589744 , 4535.38461538 , 4383.07692308 , 4175.38461538 , 4352.30769231 , 3818.46153846 , 3808.71794872 , 4285.64102564 , 4158.46153846 , 4306.66666667 , 1659.0 , 1699.0 , 12.471 , 0.0 , 0.0 , 0.0 , 0.0 , 

4.0 , 3951.28205128 , 4353.33333333 , 4385.12820513 , 4189.23076923 , 4331.28205128 , 4534.87179487 , 4384.1025641 , 4170.76923077 , 4351.28205128 , 3818.46153846 , 3806.15384615 , 4286.66666667 , 4158.46153846 , 4304.61538462 , 1660.0 , 1698.0 , 12.487 , 0.0 , 0.0 , 0.0 , 0.0 , 

5.0 , 3952.30769231 , 4353.84615385 , 4386.66666667 , 4190.76923077 , 4333.84615385 , 4536.41025641 , 4385.64102564 , 4169.74358974 , 4352.82051282 , 3818.46153846 , 3806.15384615 , 4285.12820513 , 4160.0 , 4304.1025641 , 1659.0 , 1699.0 , 12.487 , 0.0 , 0.0 , 0.0 , 0.0 , 

6.0 , 3952.30769231 , 4353.33333333 , 4385.64102564 , 4191.79487179 , 4335.8974359 , 4534.87179487 , 4384.1025641 , 4174.87179487 , 4352.30769231 , 3818.46153846 , 3808.20512821 , 4284.1025641 , 4160.51282051 , 4304.1025641 , 1660.0 , 1698.0 , 12.502 , 0.0 , 0.0 , 0.0 , 0.0 , 

7.0 , 3951.79487179 , 4352.82051282 , 4386.66666667 , 4191.79487179 , 4333.33333333 , 4533.84615385 , 4383.07692308 , 4174.87179487 , 4351.28205128 , 3818.46153846 , 3808.71794872 , 4288.20512821 , 4158.97435897 , 4303.58974359 , 1658.0 , 1699.0 , 12.502 , 0.0 , 0.0 , 0.0 , 0.0 , 

8.0 , 3949.74358974 , 4351.28205128 , 4388.20512821 , 4191.79487179 , 4335.8974359 , 4535.38461538 , 4384.61538462 , 4173.84615385 , 4352.30769231 , 3818.46153846 , 3808.71794872 , 4289.23076923 , 4158.46153846 , 4305.12820513 , 1660.0 , 1698.0 , 12.518 , 0.0 , 0.0 , 0.0 , 0.0 , 

9.0 , 3948.20512821 , 4350.76923077 , 4389.74358974 , 4192.82051282 , 4337.94871795 , 4534.35897436 , 4384.61538462 , 4172.82051282 , 4351.28205128 , 3818.46153846 , 3810.76923077 , 4286.15384615 , 4159.48717949 , 4305.64102564 , 1659.0 , 1698.0 , 12.518 , 0.0 , 0.0 , 0.0 , 0.0 , 

10.0 , 3950.25641026 , 4352.82051282 , 4389.23076923 , 4193.84615385 , 4335.8974359 , 4535.38461538 , 4382.56410256 , 4170.76923077 , 4351.28205128 , 3818.46153846 , 3811.28205128 , 4286.15384615 , 4159.48717949 , 4304.61538462 , 1660.0 , 1698.0 , 12.534 , 0.0 , 0.0 , 0.0 , 0.0 , 

11.0 , 3951.79487179 , 4354.87179487 , 4389.23076923 , 4193.33333333 , 4335.38461538 , 4535.8974359 , 4383.58974359 , 4172.30769231 , 4351.79487179 , 3818.46153846 , 3809.23076923 , 4288.71794872 , 4158.46153846 , 4303.58974359 , 1658.0 , 1699.0 , 12.534 , 0.0 , 0.0 , 0.0 , 0.0 , 

12.0 , 3950.76923077 , 4354.35897436 , 4390.76923077 , 4190.76923077 , 4333.33333333 , 4530.76923077 , 4384.1025641 , 4172.82051282 , 4350.25641026 , 3818.46153846 , 3807.17948718 , 4288.20512821 , 4157.43589744 , 4305.64102564 , 1660.0 , 1698.0 , 12.549 , 0.0 , 0.0 , 0.0 , 0.0 , 

13.0 , 3949.74358974 , 4351.79487179 , 4390.25641026 , 4191.79487179 , 4331.79487179 , 4529.74358974 , 4384.1025641 , 4170.76923077 , 4351.28205128 , 3818.46153846 , 3807.69230769 , 4285.64102564 , 4156.92307692 , 4307.69230769 , 1659.0 , 1698.0 , 12.549 , 0.0 , 0.0 , 0.0 , 0.0 , 

14.0 , 3950.25641026 , 4350.76923077 , 4387.69230769 , 4194.35897436 , 4334.87179487 , 4534.87179487 , 4383.58974359 , 4170.76923077 , 4353.84615385 , 3818.46153846 , 3808.71794872 , 4285.64102564 , 4158.46153846 , 4307.69230769 , 1660.0 , 1698.0 , 12.565 , 0.0 , 0.0 , 0.0 , 0.0 , 

15.0 , 3949.23076923 , 4352.30769231 , 4387.17948718 , 4193.33333333 , 4336.92307692 , 4535.8974359 , 4383.58974359 , 4172.30769231 , 4352.82051282 , 3818.46153846 , 3808.20512821 , 4287.17948718 , 4160.0 , 4307.17948718 , 1659.0 , 1698.0 , 12.565 , 0.0 , 0.0 , 0.0 , 0.0 , 

16.0 , 3949.74358974 , 4353.84615385 , 4387.17948718 , 4191.79487179 , 4335.8974359 , 4533.84615385 , 4382.56410256 , 4171.79487179 , 4351.79487179 , 3818.46153846 , 3807.69230769 , 4287.17948718 , 4159.48717949 , 4306.66666667 , 1658.0 , 1699.0 , 12.58 , 0.0 , 0.0 , 0.0 , 0.0 , 

17.0 , 3952.30769231 , 4352.82051282 , 4385.12820513 , 4192.30769231 , 4336.92307692 , 4535.38461538 , 4382.56410256 , 4172.82051282 , 4354.87179487 , 3818.46153846 , 3808.71794872 , 4285.64102564 , 4158.46153846 , 4304.1025641 , 1660.0 , 1697.0 , 12.58 , 0.0 , 0.0 , 0.0 , 0.0 , 

18.0 , 3953.33333333 , 4352.82051282 , 4382.05128205 , 4192.30769231 , 4336.92307692 , 4536.41025641 , 4382.56410256 , 4173.84615385 , 4355.8974359 , 3818.46153846 , 3808.71794872 , 4284.61538462 , 4159.48717949 , 4304.1025641 , 1659.0 , 1699.0 , 12.596 , 0.0 , 0.0 , 0.0 , 0.0 , 

19.0 , 3951.28205128 , 4353.33333333 , 4382.05128205 , 4191.28205128 , 4335.38461538 , 4534.35897436 , 4383.58974359 , 4172.82051282 , 4354.35897436 , 3818.46153846 , 3807.17948718 , 4286.66666667 , 4160.51282051 , 4305.64102564 , 1659.0 , 1698.0 , 12.596 , 0.0 , 0.0 , 0.0 , 0.0 , 

20.0 , 3950.25641026 , 4352.30769231 , 4385.64102564 , 4189.74358974 , 4335.8974359 , 4535.38461538 , 4384.1025641 , 4173.33333333 , 4353.84615385 , 3818.46153846 , 3808.20512821 , 4288.71794872 , 4160.51282051 , 4305.12820513 , 1658.0 , 1698.0 , 12.612 , 0.0 , 0.0 , 0.0 , 0.0 , 

21.0 , 3949.23076923 , 4351.79487179 , 4386.66666667 , 4189.74358974 , 4336.41025641 , 4536.41025641 , 4384.1025641 , 4174.35897436 , 4354.35897436 , 3818.46153846 , 3808.71794872 , 4286.15384615 , 4160.51282051 , 4305.64102564 , 1659.0 , 1698.0 , 12.612 , 0.0 , 0.0 , 0.0 , 0.0 , 

22.0 , 3951.28205128 , 4352.82051282 , 4384.1025641 , 4190.25641026 , 4335.8974359 , 4536.41025641 , 4384.61538462 , 4174.35897436 , 4352.82051282 , 3818.46153846 , 3806.66666667 , 4285.64102564 , 4160.0 , 4306.15384615 , 1659.0 , 1698.0 , 12.627 , 0.0 , 0.0 , 0.0 , 0.0 , 

23.0 , 3954.35897436 , 4352.82051282 , 4386.15384615 , 4190.76923077 , 4334.35897436 , 4535.38461538 , 4385.12820513 , 4175.38461538 , 4351.28205128 , 3818.46153846 , 3807.17948718 , 4287.69230769 , 4158.97435897 , 4306.66666667 , 1659.0 , 1699.0 , 12.627 , 0.0 , 0.0 , 0.0 , 0.0 , 

24.0 , 3952.82051282 , 4353.84615385 , 4388.71794872 , 4191.79487179 , 4333.84615385 , 4535.38461538 , 4384.61538462 , 4173.84615385 , 4352.82051282 , 3818.46153846 , 3810.25641026 , 4286.66666667 , 4158.46153846 , 4306.15384615 , 1659.0 , 1698.0 , 12.643 , 0.0 , 0.0 , 0.0 , 0.0 , 

25.0 , 3949.74358974 , 4355.8974359 , 4388.20512821 , 4192.82051282 , 4333.84615385 , 4535.38461538 , 4384.1025641 , 4173.84615385 , 4354.87179487 , 3818.46153846 , 3811.28205128 , 4286.15384615 , 4158.97435897 , 4305.12820513 , 1659.0 , 1699.0 , 12.643 , 0.0 , 0.0 , 0.0 , 0.0 , 

26.0 , 3948.71794872 , 4353.33333333 , 4388.20512821 , 4192.30769231 , 4334.35897436 , 4535.38461538 , 4383.07692308 , 4175.38461538 , 4354.87179487 , 3818.46153846 , 3807.17948718 , 4289.23076923 , 4161.53846154 , 4304.1025641 , 1659.0 , 1698.0 , 12.658 , 0.0 , 0.0 , 0.0 , 0.0 , 

27.0 , 3949.23076923 , 4351.28205128 , 4388.71794872 , 4191.79487179 , 4335.8974359 , 4536.41025641 , 4383.58974359 , 4174.35897436 , 4352.82051282 , 3818.46153846 , 3805.64102564 , 4289.23076923 , 4162.05128205 , 4305.12820513 , 1659.0 , 1699.0 , 12.658 , 0.0 , 0.0 , 0.0 , 0.0 , 

28.0 , 3950.76923077 , 4351.28205128 , 4387.17948718 , 4192.30769231 , 4335.38461538 , 4535.38461538 , 4384.1025641 , 4173.84615385 , 4353.33333333 , 3818.46153846 , 3809.23076923 , 4287.69230769 , 4160.0 , 4305.12820513 , 1659.0 , 1698.0 , 12.674 , 0.0 , 0.0 , 0.0 , 0.0 , 

29.0 , 3952.30769231 , 4350.25641026 , 4386.15384615 , 4191.28205128 , 4334.87179487 , 4533.33333333 , 4384.1025641 , 4175.38461538 , 4352.30769231 , 3818.46153846 , 3810.25641026 , 4286.66666667 , 4160.0 , 4303.58974359 , 1659.0 , 1698.0 , 12.674 , 0.0 , 0.0 , 0.0 , 0.0 , 

30.0 , 3951.79487179 , 4349.23076923 , 4386.66666667 , 4189.23076923 , 4335.8974359 , 4534.35897436 , 4385.12820513 , 4174.87179487 , 4349.74358974 , 3818.46153846 , 3808.20512821 , 4285.64102564 , 4160.0 , 4304.1025641 , 1659.0 , 1698.0 , 12.69 , 0.0 , 0.0 , 0.0 , 0.0 , 

31.0 , 3952.30769231 , 4349.23076923 , 4386.66666667 , 4189.74358974 , 4334.35897436 , 4535.8974359 , 4385.64102564 , 4173.84615385 , 4350.76923077 , 3818.46153846 , 3807.69230769 , 4286.15384615 , 4161.02564103 , 4305.64102564 , 1658.0 , 1698.0 , 12.69 , 0.0 , 0.0 , 0.0 , 0.0 , 

32.0 , 3953.33333333 , 4351.28205128 , 4386.15384615 , 4191.28205128 , 4333.33333333 , 4534.87179487 , 4383.58974359 , 4175.38461538 , 4352.30769231 , 3818.46153846 , 3808.71794872 , 4286.66666667 , 4160.51282051 , 4306.66666667 , 1659.0 , 1698.0 , 12.705 , 0.0 , 0.0 , 0.0 , 0.0 , 

33.0 , 3953.84615385 , 4353.84615385 , 4386.66666667 , 4190.25641026 , 4335.38461538 , 4533.33333333 , 4382.05128205 , 4174.87179487 , 4351.28205128 , 3818.46153846 , 3808.20512821 , 4286.15384615 , 4157.94871795 , 4307.69230769 , 1659.0 , 1698.0 , 12.705 , 0.0 , 0.0 , 0.0 , 0.0 , 

34.0 , 3952.30769231 , 4353.33333333 , 4386.66666667 , 4190.76923077 , 4336.92307692 , 4534.35897436 , 4384.1025641 , 4173.84615385 , 4351.28205128 , 3818.46153846 , 3806.66666667 , 4287.69230769 , 4158.97435897 , 4305.64102564 , 1659.0 , 1698.0 , 12.721 , 0.0 , 0.0 , 0.0 , 0.0 , 

35.0 , 3950.76923077 , 4351.79487179 , 4386.66666667 , 4193.84615385 , 4334.87179487 , 4535.8974359 , 4384.61538462 , 4173.33333333 , 4353.33333333 , 3818.46153846 , 3806.15384615 , 4288.71794872 , 4159.48717949 , 4303.07692308 , 1659.0 , 1698.0 , 12.721 , 0.0 , 0.0 , 0.0 , 0.0 , 

36.0 , 3950.76923077 , 4351.28205128 , 4388.20512821 , 4194.35897436 , 4335.38461538 , 4535.38461538 , 4383.07692308 , 4171.28205128 , 4352.30769231 , 3818.46153846 , 3807.69230769 , 4287.17948718 , 4157.43589744 , 4303.58974359 , 1659.0 , 1699.0 , 12.736 , 0.0 , 0.0 , 0.0 , 0.0 , 

37.0 , 3951.79487179 , 4351.79487179 , 4389.74358974 , 4191.79487179 , 4337.43589744 , 4534.87179487 , 4384.1025641 , 4170.76923077 , 4350.76923077 , 3818.46153846 , 3809.74358974 , 4287.69230769 , 4157.94871795 , 4303.58974359 , 1659.0 , 1698.0 , 12.736 , 0.0 , 0.0 , 0.0 , 0.0 , 

38.0 , 3950.76923077 , 4351.79487179 , 4389.23076923 , 4190.25641026 , 4336.41025641 , 4534.87179487 , 4384.1025641 , 4172.82051282 , 4351.79487179 , 3818.46153846 , 3809.74358974 , 4288.71794872 , 4156.92307692 , 4302.05128205 , 1659.0 , 1699.0 , 12.752 , 0.0 , 0.0 , 0.0 , 0.0 , 

39.0 , 3948.20512821 , 4351.79487179 , 4388.20512821 , 4192.82051282 , 4333.33333333 , 4534.87179487 , 4381.53846154 , 4171.28205128 , 4353.33333333 , 3818.46153846 , 3808.71794872 , 4286.15384615 , 4154.87179487 , 4303.07692308 , 1658.0 , 1698.0 , 12.752 , 0.0 , 0.0 , 0.0 , 0.0 , 

40.0 , 3950.25641026 , 4350.76923077 , 4389.23076923 , 4194.35897436 , 4335.8974359 , 4535.38461538 , 4381.02564103 , 4168.71794872 , 4353.33333333 , 3818.46153846 , 3808.71794872 , 4284.1025641 , 4154.87179487 , 4304.61538462 , 1660.0 , 1698.0 , 12.768 , 0.0 , 0.0 , 0.0 , 0.0 , 

41.0 , 3950.76923077 , 4352.82051282 , 4389.23076923 , 4192.82051282 , 4336.92307692 , 4535.38461538 , 4384.1025641 , 4172.82051282 , 4352.30769231 , 3818.46153846 , 3808.20512821 , 4286.66666667 , 4156.41025641 , 4302.56410256 , 1659.0 , 1698.0 , 12.768 , 0.0 , 0.0 , 0.0 , 0.0 , 

42.0 , 3948.71794872 , 4354.35897436 , 4387.69230769 , 4190.76923077 , 4332.82051282 , 4534.87179487 , 4383.07692308 , 4174.87179487 , 4350.76923077 , 3818.46153846 , 3807.69230769 , 4289.23076923 , 4156.41025641 , 4302.05128205 , 1659.0 , 1698.0 , 12.783 , 0.0 , 0.0 , 0.0 , 0.0 , 

43.0 , 3949.74358974 , 4352.30769231 , 4386.15384615 , 4191.28205128 , 4331.79487179 , 4534.87179487 , 4382.05128205 , 4173.33333333 , 4349.74358974 , 3818.46153846 , 3805.64102564 , 4287.17948718 , 4155.38461538 , 4302.56410256 , 1659.0 , 1698.0 , 12.783 , 0.0 , 0.0 , 0.0 , 0.0 , 

44.0 , 3951.79487179 , 4352.30769231 , 4388.71794872 , 4192.30769231 , 4333.84615385 , 4535.38461538 , 4383.58974359 , 4174.35897436 , 4350.25641026 , 3818.46153846 , 3806.15384615 , 4285.64102564 , 4154.35897436 , 4303.07692308 , 1659.0 , 1699.0 , 12.799 , 0.0 , 0.0 , 0.0 , 0.0 , 

45.0 , 3951.28205128 , 4351.79487179 , 4390.76923077 , 4191.79487179 , 4332.30769231 , 4534.35897436 , 4383.58974359 , 4174.87179487 , 4352.82051282 , 3818.46153846 , 3809.23076923 , 4286.66666667 , 4156.41025641 , 4304.1025641 , 1660.0 , 1698.0 , 12.799 , 0.0 , 0.0 , 0.0 , 0.0 , 

46.0 , 3949.74358974 , 4348.20512821 , 4388.20512821 , 4191.28205128 , 4333.84615385 , 4535.8974359 , 4384.1025641 , 4173.84615385 , 4353.33333333 , 3818.46153846 , 3809.74358974 , 4288.20512821 , 4156.41025641 , 4305.12820513 , 1659.0 , 1699.0 , 12.814 , 0.0 , 0.0 , 0.0 , 0.0 , 

47.0 , 3948.71794872 , 4349.23076923 , 4386.66666667 , 4191.28205128 , 4338.97435897 , 4536.92307692 , 4384.61538462 , 4172.82051282 , 4350.76923077 , 3818.46153846 , 3806.66666667 , 4287.17948718 , 4153.33333333 , 4304.1025641 , 1659.0 , 1697.0 , 12.814 , 0.0 , 0.0 , 0.0 , 0.0 , 

48.0 , 3947.69230769 , 4350.76923077 , 4389.74358974 , 4191.79487179 , 4337.43589744 , 4535.38461538 , 4383.07692308 , 4172.82051282 , 4350.76923077 , 3818.46153846 , 3806.66666667 , 4286.15384615 , 4155.38461538 , 4303.07692308 , 1658.0 , 1699.0 , 12.83 , 0.0 , 0.0 , 0.0 , 0.0 , 

49.0 , 3950.76923077 , 4348.20512821 , 4389.74358974 , 4191.79487179 , 4333.84615385 , 4534.35897436 , 4383.58974359 , 4173.84615385 , 4352.30769231 , 3818.46153846 , 3809.23076923 , 4286.15384615 , 4156.92307692 , 4304.61538462 , 1660.0 , 1698.0 , 12.83 , 0.0 , 0.0 , 0.0 , 0.0 , 

50.0 , 3952.82051282 , 4349.23076923 , 4386.66666667 , 4192.82051282 , 4335.38461538 , 4535.38461538 , 4386.66666667 , 4174.35897436 , 4352.30769231 , 3818.46153846 , 3809.74358974 , 4286.66666667 , 4153.33333333 , 4306.15384615 , 1659.0 , 1698.0 , 12.846 , 0.0 , 0.0 , 0.0 , 0.0 , 

51.0 , 3949.74358974 , 4353.33333333 , 4386.15384615 , 4193.33333333 , 4336.92307692 , 4535.8974359 , 4385.64102564 , 4173.33333333 , 4354.35897436 , 3818.46153846 , 3807.17948718 , 4286.15384615 , 4153.33333333 , 4305.64102564 , 1659.0 , 1699.0 , 12.846 , 0.0 , 0.0 , 0.0 , 0.0 , 

52.0 , 3947.69230769 , 4349.74358974 , 4389.74358974 , 4192.30769231 , 4335.8974359 , 4536.41025641 , 4382.56410256 , 4173.84615385 , 4355.8974359 , 3818.46153846 , 3806.66666667 , 4286.15384615 , 4158.46153846 , 4304.1025641 , 1660.0 , 1699.0 , 12.861 , 0.0 , 0.0 , 0.0 , 0.0 , 

53.0 , 3949.23076923 , 4347.69230769 , 4392.30769231 , 4192.82051282 , 4335.8974359 , 4535.8974359 , 4383.07692308 , 4173.84615385 , 4352.30769231 , 3818.46153846 , 3808.20512821 , 4288.20512821 , 4157.94871795 , 4304.1025641 , 1660.0 , 1698.0 , 12.861 , 0.0 , 0.0 , 0.0 , 0.0 , 

54.0 , 3949.23076923 , 4351.28205128 , 4390.25641026 , 4193.84615385 , 4337.43589744 , 4535.8974359 , 4383.58974359 , 4173.33333333 , 4350.76923077 , 3818.46153846 , 3808.20512821 , 4287.17948718 , 4154.87179487 , 4303.58974359 , 1659.0 , 1698.0 , 12.877 , 0.0 , 0.0 , 0.0 , 0.0 , 

55.0 , 3948.20512821 , 4352.82051282 , 4388.20512821 , 4191.79487179 , 4335.8974359 , 4537.43589744 , 4383.07692308 , 4173.33333333 , 4352.30769231 , 3818.46153846 , 3807.17948718 , 4286.66666667 , 4155.8974359 , 4301.02564103 , 1659.0 , 1699.0 , 12.877 , 0.0 , 0.0 , 0.0 , 0.0 , 

56.0 , 3948.20512821 , 4350.76923077 , 4390.76923077 , 4191.79487179 , 4333.84615385 , 4532.30769231 , 4385.64102564 , 4172.82051282 , 4350.76923077 , 3818.46153846 , 3808.71794872 , 4288.20512821 , 4154.35897436 , 4301.02564103 , 1659.0 , 1698.0 , 12.892 , 0.0 , 0.0 , 0.0 , 0.0 , 

57.0 , 3947.17948718 , 4351.28205128 , 4391.28205128 , 4193.33333333 , 4335.38461538 , 4529.23076923 , 4384.1025641 , 4174.35897436 , 4350.25641026 , 3818.46153846 , 3809.23076923 , 4288.71794872 , 4150.25641026 , 4304.1025641 , 1659.0 , 1699.0 , 12.892 , 0.0 , 0.0 , 0.0 , 0.0 , 

58.0 , 3947.69230769 , 4352.30769231 , 4388.71794872 , 4193.33333333 , 4336.92307692 , 4532.30769231 , 4380.0 , 4175.38461538 , 4352.82051282 , 3818.46153846 , 3807.17948718 , 4287.17948718 , 4150.76923077 , 4304.1025641 , 1659.0 , 1698.0 , 12.908 , 0.0 , 0.0 , 0.0 , 0.0 , 

59.0 , 3949.23076923 , 4350.76923077 , 4387.69230769 , 4192.30769231 , 4336.92307692 , 4533.84615385 , 4382.05128205 , 4171.79487179 , 4352.82051282 , 3818.46153846 , 3807.17948718 , 4287.17948718 , 4155.8974359 , 4303.07692308 , 1659.0 , 1698.0 , 12.908 , 0.0 , 0.0 , 0.0 , 0.0 , 

60.0 , 3948.71794872 , 4349.23076923 , 4389.23076923 , 4192.30769231 , 4335.38461538 , 4533.84615385 , 4386.15384615 , 4170.76923077 , 4352.82051282 , 3818.46153846 , 3809.23076923 , 4288.20512821 , 4156.41025641 , 4303.58974359 , 1660.0 , 1698.0 , 12.924 , 0.0 , 0.0 , 0.0 , 0.0 , 

61.0 , 3948.71794872 , 4351.28205128 , 4390.25641026 , 4193.33333333 , 4335.8974359 , 4534.87179487 , 4385.64102564 , 4174.87179487 , 4351.79487179 , 3818.46153846 , 3810.76923077 , 4288.71794872 , 4155.8974359 , 4304.1025641 , 1659.0 , 1698.0 , 12.924 , 0.0 , 0.0 , 0.0 , 0.0 , 

62.0 , 3948.71794872 , 4352.82051282 , 4390.76923077 , 4193.84615385 , 4335.38461538 , 4534.87179487 , 4383.58974359 , 4176.41025641 , 4350.76923077 , 3818.46153846 , 3809.23076923 , 4288.20512821 , 4159.48717949 , 4303.58974359 , 1659.0 , 1699.0 , 12.939 , 0.0 , 0.0 , 0.0 , 0.0 , 

63.0 , 3947.69230769 , 4350.25641026 , 4390.76923077 , 4192.82051282 , 4333.84615385 , 4533.33333333 , 4384.1025641 , 4173.84615385 , 4351.28205128 , 3818.46153846 , 3807.17948718 , 4288.20512821 , 4158.46153846 , 4304.1025641 , 1659.0 , 1698.0 , 12.939 , 0.0 , 0.0 , 0.0 , 0.0 , 

64.0 , 3946.66666667 , 4348.71794872 , 4391.28205128 , 4191.79487179 , 4334.35897436 , 4535.38461538 , 4384.1025641 , 4172.82051282 , 4351.79487179 , 3818.46153846 , 3808.20512821 , 4288.20512821 , 4154.87179487 , 4304.1025641 , 1659.0 , 1698.0 , 12.955 , 0.0 , 0.0 , 0.0 , 0.0 , 

65.0 , 3949.23076923 , 4352.82051282 , 4389.74358974 , 4192.30769231 , 4334.87179487 , 4535.8974359 , 4384.61538462 , 4174.35897436 , 4351.28205128 , 3818.46153846 , 3810.25641026 , 4288.71794872 , 4156.41025641 , 4304.1025641 , 1659.0 , 1698.0 , 12.955 , 0.0 , 0.0 , 0.0 , 0.0 , 

66.0 , 3949.23076923 , 4353.84615385 , 4388.71794872 , 4191.28205128 , 4334.35897436 , 4535.38461538 , 4385.12820513 , 4174.35897436 , 4351.79487179 , 3818.46153846 , 3809.23076923 , 4287.17948718 , 4156.41025641 , 4303.58974359 , 1659.0 , 1698.0 , 12.97 , 0.0 , 0.0 , 0.0 , 0.0 , 

67.0 , 3948.71794872 , 4350.76923077 , 4389.23076923 , 4191.79487179 , 4334.87179487 , 4536.41025641 , 4385.12820513 , 4173.33333333 , 4352.30769231 , 3818.46153846 , 3808.71794872 , 4285.12820513 , 4153.84615385 , 4302.05128205 , 1659.0 , 1697.0 , 12.97 , 0.0 , 0.0 , 0.0 , 0.0 , 

68.0 , 3948.20512821 , 4350.25641026 , 4387.69230769 , 4192.30769231 , 4336.41025641 , 4535.8974359 , 4384.1025641 , 4172.30769231 , 4351.28205128 , 3818.46153846 , 3808.71794872 , 4285.12820513 , 4155.38461538 , 4301.02564103 , 1658.0 , 1699.0 , 12.986 , 0.0 , 0.0 , 0.0 , 0.0 , 

69.0 , 3947.69230769 , 4351.79487179 , 4386.66666667 , 4191.79487179 , 4335.8974359 , 4534.35897436 , 4383.07692308 , 4172.82051282 , 4352.82051282 , 3818.46153846 , 3807.17948718 , 4286.66666667 , 4157.43589744 , 4302.05128205 , 1660.0 , 1698.0 , 12.986 , 0.0 , 0.0 , 0.0 , 0.0 , 

70.0 , 3947.69230769 , 4351.28205128 , 4388.71794872 , 4191.79487179 , 4335.8974359 , 4533.84615385 , 4384.1025641 , 4172.30769231 , 4353.33333333 , 3818.46153846 , 3806.15384615 , 4285.64102564 , 4156.41025641 , 4303.07692308 , 1658.0 , 1698.0 , 13.002 , 0.0 , 0.0 , 0.0 , 0.0 , 

71.0 , 3947.69230769 , 4352.30769231 , 4388.20512821 , 4192.82051282 , 4336.41025641 , 4536.41025641 , 4384.1025641 , 4171.79487179 , 4351.28205128 , 3818.46153846 , 3807.17948718 , 4286.66666667 , 4157.43589744 , 4302.05128205 , 1660.0 , 1699.0 , 13.002 , 0.0 , 0.0 , 0.0 , 0.0 , 

72.0 , 3948.20512821 , 4352.82051282 , 4389.23076923 , 4193.84615385 , 4336.41025641 , 4535.38461538 , 4383.58974359 , 4172.30769231 , 4351.28205128 , 3818.46153846 , 3808.71794872 , 4289.74358974 , 4156.41025641 , 4301.53846154 , 1659.0 , 1698.0 , 13.017 , 0.0 , 0.0 , 0.0 , 0.0 , 

73.0 , 3948.71794872 , 4349.74358974 , 4390.25641026 , 4192.82051282 , 4336.92307692 , 4533.33333333 , 4384.61538462 , 4173.33333333 , 4352.30769231 , 3818.46153846 , 3809.74358974 , 4288.71794872 , 4154.35897436 , 4304.61538462 , 1658.0 , 1699.0 , 13.017 , 0.0 , 0.0 , 0.0 , 0.0 , 

74.0 , 3949.23076923 , 4348.71794872 , 4388.20512821 , 4192.30769231 , 4333.84615385 , 4533.84615385 , 4385.12820513 , 4174.87179487 , 4351.79487179 , 3818.46153846 , 3809.74358974 , 4285.64102564 , 4154.87179487 , 4305.12820513 , 1660.0 , 1698.0 , 13.033 , 0.0 , 0.0 , 0.0 , 0.0 , 

75.0 , 3950.25641026 , 4350.76923077 , 4388.20512821 , 4192.82051282 , 4333.33333333 , 4533.84615385 , 4385.12820513 , 4175.38461538 , 4351.28205128 , 3818.46153846 , 3808.20512821 , 4286.15384615 , 4152.82051282 , 4303.58974359 , 1659.0 , 1699.0 , 13.033 , 0.0 , 0.0 , 0.0 , 0.0 , 

76.0 , 3948.20512821 , 4351.28205128 , 4389.23076923 , 4191.79487179 , 4339.48717949 , 4533.84615385 , 4385.64102564 , 4173.84615385 , 4353.33333333 , 3818.46153846 , 3807.17948718 , 4288.71794872 , 4151.79487179 , 4304.1025641 , 1659.0 , 1698.0 , 13.048 , 0.0 , 0.0 , 0.0 , 0.0 , 

77.0 , 3946.15384615 , 4349.23076923 , 4388.20512821 , 4190.76923077 , 4337.94871795 , 4534.87179487 , 4384.1025641 , 4172.82051282 , 4353.33333333 , 3818.46153846 , 3807.17948718 , 4288.20512821 , 4155.8974359 , 4304.61538462 , 1659.0 , 1698.0 , 13.048 , 0.0 , 0.0 , 0.0 , 0.0 , 

78.0 , 3948.20512821 , 4348.71794872 , 4388.20512821 , 4192.30769231 , 4333.33333333 , 4535.38461538 , 4383.07692308 , 4173.33333333 , 4351.79487179 , 3818.46153846 , 3807.69230769 , 4287.17948718 , 4157.94871795 , 4301.53846154 , 1660.0 , 1698.0 , 13.064 , 0.0 , 0.0 , 0.0 , 0.0 , 

79.0 , 3950.25641026 , 4349.74358974 , 4389.74358974 , 4193.33333333 , 4336.41025641 , 4534.87179487 , 4383.07692308 , 4173.33333333 , 4351.79487179 , 3818.46153846 , 3807.69230769 , 4287.17948718 , 4153.84615385 , 4301.53846154 , 1659.0 , 1699.0 , 13.064 , 0.0 , 0.0 , 0.0 , 0.0 , 

80.0 , 3949.74358974 , 4351.28205128 , 4389.74358974 , 4192.82051282 , 4336.41025641 , 4536.41025641 , 4382.56410256 , 4173.33333333 , 4353.33333333 , 3818.46153846 , 3808.20512821 , 4287.69230769 , 4154.35897436 , 4305.12820513 , 1660.0 , 1698.0 , 13.08 , 0.0 , 0.0 , 0.0 , 0.0 , 

81.0 , 3949.23076923 , 4351.28205128 , 4388.71794872 , 4192.82051282 , 4331.28205128 , 4537.94871795 , 4384.61538462 , 4172.30769231 , 4353.33333333 , 3818.46153846 , 3809.23076923 , 4287.17948718 , 4158.97435897 , 4306.15384615 , 1659.0 , 1698.0 , 13.08 , 0.0 , 0.0 , 0.0 , 0.0 , 

82.0 , 3948.71794872 , 4348.20512821 , 4389.74358974 , 4191.79487179 , 4334.35897436 , 4536.92307692 , 4385.64102564 , 4172.82051282 , 4352.30769231 , 3818.46153846 , 3808.71794872 , 4286.66666667 , 4158.97435897 , 4306.66666667 , 1659.0 , 1698.0 , 13.095 , 0.0 , 0.0 , 0.0 , 0.0 , 

83.0 , 3946.66666667 , 4346.15384615 , 4389.74358974 , 4191.79487179 , 4337.43589744 , 4533.84615385 , 4384.1025641 , 4174.35897436 , 4351.79487179 , 3818.46153846 , 3808.20512821 , 4287.69230769 , 4155.38461538 , 4307.17948718 , 1659.0 , 1697.0 , 13.095 , 0.0 , 0.0 , 0.0 , 0.0 , 

84.0 , 3947.69230769 , 4347.69230769 , 4388.71794872 , 4193.84615385 , 4334.87179487 , 4533.33333333 , 4385.12820513 , 4173.33333333 , 4352.82051282 , 3818.46153846 , 3809.23076923 , 4287.17948718 , 4155.38461538 , 4304.61538462 , 1659.0 , 1699.0 , 13.111 , 0.0 , 0.0 , 0.0 , 0.0 , 

85.0 , 3949.23076923 , 4347.69230769 , 4389.23076923 , 4192.82051282 , 4335.8974359 , 4535.8974359 , 4385.12820513 , 4173.33333333 , 4353.33333333 , 3818.46153846 , 3809.23076923 , 4285.12820513 , 4158.46153846 , 4302.05128205 , 1660.0 , 1698.0 , 13.111 , 0.0 , 0.0 , 0.0 , 0.0 , 

86.0 , 3951.28205128 , 4344.61538462 , 4388.71794872 , 4190.76923077 , 4335.8974359 , 4536.41025641 , 4383.58974359 , 4175.38461538 , 4353.33333333 , 3818.46153846 , 3809.23076923 , 4284.1025641 , 4158.46153846 , 4303.07692308 , 1658.0 , 1699.0 , 13.126 , 0.0 , 0.0 , 0.0 , 0.0 , 

87.0 , 3952.82051282 , 4345.64102564 , 4384.61538462 , 4191.28205128 , 4331.79487179 , 4534.87179487 , 4384.1025641 , 4174.87179487 , 4354.35897436 , 3818.46153846 , 3807.17948718 , 4284.61538462 , 4158.46153846 , 4302.56410256 , 1659.0 , 1698.0 , 13.126 , 0.0 , 0.0 , 0.0 , 0.0 , 

88.0 , 3953.33333333 , 4348.71794872 , 4384.61538462 , 4190.25641026 , 4333.33333333 , 4534.87179487 , 4385.12820513 , 4173.33333333 , 4355.8974359 , 3818.46153846 , 3807.69230769 , 4286.66666667 , 4162.05128205 , 4300.51282051 , 1660.0 , 1698.0 , 13.142 , 0.0 , 0.0 , 0.0 , 0.0 , 

89.0 , 3953.84615385 , 4348.20512821 , 4386.15384615 , 4189.23076923 , 4335.8974359 , 4535.8974359 , 4382.56410256 , 4172.82051282 , 4355.38461538 , 3818.46153846 , 3809.74358974 , 4286.66666667 , 4162.56410256 , 4303.58974359 , 1659.0 , 1698.0 , 13.142 , 0.0 , 0.0 , 0.0 , 0.0 , 

90.0 , 3956.41025641 , 4348.20512821 , 4384.61538462 , 4191.28205128 , 4334.35897436 , 4534.87179487 , 4383.58974359 , 4172.30769231 , 4351.79487179 , 3818.46153846 , 3809.74358974 , 4285.64102564 , 4161.53846154 , 4306.66666667 , 1659.0 , 1698.0 , 13.158 , 0.0 , 0.0 , 0.0 , 0.0 , 

91.0 , 3957.43589744 , 4349.74358974 , 4383.07692308 , 4191.79487179 , 4334.87179487 , 4534.87179487 , 4384.1025641 , 4173.84615385 , 4351.28205128 , 3818.46153846 , 3808.71794872 , 4286.15384615 , 4166.15384615 , 4305.12820513 , 1659.0 , 1698.0 , 13.158 , 0.0 , 0.0 , 0.0 , 0.0 , 

92.0 , 3958.46153846 , 4351.28205128 , 4384.1025641 , 4190.76923077 , 4334.35897436 , 4532.82051282 , 4381.53846154 , 4174.35897436 , 4352.30769231 , 3818.46153846 , 3808.71794872 , 4286.66666667 , 4172.82051282 , 4303.58974359 , 1659.0 , 1698.0 , 13.173 , 0.0 , 0.0 , 0.0 , 0.0 , 

93.0 , 3959.48717949 , 4351.79487179 , 4383.58974359 , 4188.20512821 , 4333.84615385 , 4530.25641026 , 4381.53846154 , 4171.28205128 , 4350.25641026 , 3818.46153846 , 3810.25641026 , 4286.15384615 , 4172.82051282 , 4305.64102564 , 1660.0 , 1698.0 , 13.173 , 0.0 , 0.0 , 0.0 , 0.0 , 

94.0 , 3958.97435897 , 4353.84615385 , 4382.56410256 , 4185.64102564 , 4337.43589744 , 4534.35897436 , 4382.56410256 , 4171.79487179 , 4351.28205128 , 3818.46153846 , 3810.76923077 , 4287.17948718 , 4172.82051282 , 4308.20512821 , 1658.0 , 1699.0 , 13.204 , 0.0 , 0.0 , 0.0 , 0.0 , 

95.0 , 3957.43589744 , 4358.97435897 , 4382.05128205 , 4189.23076923 , 4335.38461538 , 4537.43589744 , 4382.05128205 , 4174.35897436 , 4353.84615385 , 3818.46153846 , 3808.71794872 , 4287.69230769 , 4177.94871795 , 4308.20512821 , 1659.0 , 1698.0 , 13.204 , 0.0 , 0.0 , 0.0 , 0.0 , 

96.0 , 3954.35897436 , 4364.61538462 , 4379.48717949 , 4191.28205128 , 4331.28205128 , 4534.87179487 , 4381.53846154 , 4173.84615385 , 4352.82051282 , 3818.46153846 , 3807.17948718 , 4285.64102564 , 4179.48717949 , 4308.71794872 , 1659.0 , 1698.0 , 13.204 , 0.0 , 0.0 , 0.0 , 0.0 , 

97.0 , 3953.84615385 , 4370.76923077 , 4380.51282051 , 4188.71794872 , 4334.87179487 , 4535.8974359 , 4381.53846154 , 4173.33333333 , 4350.76923077 , 3818.46153846 , 3808.71794872 , 4287.17948718 , 4175.8974359 , 4310.25641026 , 1659.0 , 1698.0 , 13.204 , 0.0 , 0.0 , 0.0 , 0.0 , 

98.0 , 3953.33333333 , 4375.8974359 , 4382.56410256 , 4189.23076923 , 4337.43589744 , 4535.38461538 , 4383.07692308 , 4174.87179487 , 4353.33333333 , 3818.46153846 , 3809.74358974 , 4287.69230769 , 4175.8974359 , 4310.25641026 , 1658.0 , 1698.0 , 13.22 , 0.0 , 0.0 , 0.0 , 0.0 , 

99.0 , 3951.79487179 , 4380.0 , 4380.0 , 4192.30769231 , 4333.33333333 , 4530.25641026 , 4384.1025641 , 4173.33333333 , 4353.33333333 , 3818.46153846 , 3807.17948718 , 4284.61538462 , 4177.43589744 , 4308.71794872 , 1659.0 , 1697.0 , 13.22 , 0.0 , 0.0 , 0.0 , 0.0 , 

100.0 , 3948.71794872 , 4383.07692308 , 4378.97435897 , 4190.25641026 , 4332.82051282 , 4529.74358974 , 4382.05128205 , 4171.79487179 , 4351.79487179 , 3818.46153846 , 3806.15384615 , 4284.1025641 , 4169.74358974 , 4307.17948718 , 1658.0 , 1698.0 , 13.236 , 0.0 , 0.0 , 0.0 , 0.0 , 

101.0 , 3946.15384615 , 4384.1025641 , 4382.05128205 , 4188.20512821 , 4334.35897436 , 4530.25641026 , 4380.0 , 4171.28205128 , 4351.79487179 , 3818.46153846 , 3808.20512821 , 4285.12820513 , 4161.02564103 , 4307.17948718 , 1659.0 , 1699.0 , 13.236 , 0.0 , 0.0 , 0.0 , 0.0 , 

102.0 , 3945.64102564 , 4384.1025641 , 4384.61538462 , 4190.76923077 , 4333.33333333 , 4531.28205128 , 4383.58974359 , 4169.74358974 , 4352.30769231 , 3818.46153846 , 3809.23076923 , 4283.07692308 , 4161.02564103 , 4310.25641026 , 1659.0 , 1697.0 , 13.251 , 0.0 , 0.0 , 0.0 , 0.0 , 

103.0 , 3947.69230769 , 4382.56410256 , 4383.58974359 , 4191.79487179 , 4332.82051282 , 4535.8974359 , 4385.12820513 , 4170.76923077 , 4351.79487179 , 3818.46153846 , 3808.20512821 , 4283.58974359 , 4159.48717949 , 4312.82051282 , 1659.0 , 1699.0 , 13.251 , 0.0 , 0.0 , 0.0 , 0.0 , 

104.0 , 3949.23076923 , 4376.41025641 , 4383.58974359 , 4188.71794872 , 4334.87179487 , 4536.41025641 , 4382.56410256 , 4174.87179487 , 4351.79487179 , 3818.46153846 , 3808.20512821 , 4286.15384615 , 4154.87179487 , 4310.76923077 , 1659.0 , 1698.0 , 13.267 , 0.0 , 0.0 , 0.0 , 0.0 , 

105.0 , 3948.20512821 , 4368.20512821 , 4385.12820513 , 4190.25641026 , 4334.35897436 , 4532.82051282 , 4381.53846154 , 4175.38461538 , 4353.33333333 , 3818.46153846 , 3808.20512821 , 4287.69230769 , 4155.38461538 , 4309.74358974 , 1658.0 , 1699.0 , 13.267 , 0.0 , 0.0 , 0.0 , 0.0 , 

106.0 , 3947.69230769 , 4361.53846154 , 4385.64102564 , 4192.82051282 , 4334.35897436 , 4533.33333333 , 4385.64102564 , 4173.33333333 , 4353.33333333 , 3818.46153846 , 3808.20512821 , 4288.71794872 , 4158.97435897 , 4311.79487179 , 1659.0 , 1698.0 , 13.282 , 0.0 , 0.0 , 0.0 , 0.0 , 

107.0 , 3948.20512821 , 4356.92307692 , 4386.15384615 , 4191.79487179 , 4336.41025641 , 4535.8974359 , 4386.66666667 , 4174.35897436 , 4352.82051282 , 3818.46153846 , 3807.69230769 , 4286.66666667 , 4158.97435897 , 4312.30769231 , 1659.0 , 1698.0 , 13.282 , 0.0 , 0.0 , 0.0 , 0.0 , 

108.0 , 3950.25641026 , 4349.74358974 , 4385.64102564 , 4190.76923077 , 4336.92307692 , 4537.43589744 , 4382.56410256 , 4173.84615385 , 4353.33333333 , 3818.46153846 , 3808.71794872 , 4283.58974359 , 4158.97435897 , 4310.76923077 , 1659.0 , 1698.0 , 13.298 , 0.0 , 0.0 , 0.0 , 0.0 , 

109.0 , 3951.79487179 , 4346.15384615 , 4384.1025641 , 4192.30769231 , 4334.35897436 , 4538.46153846 , 4382.05128205 , 4172.82051282 , 4354.35897436 , 3818.46153846 , 3808.71794872 , 4286.66666667 , 4158.97435897 , 4310.76923077 , 1660.0 , 1699.0 , 13.298 , 0.0 , 0.0 , 0.0 , 0.0 , 

110.0 , 3952.30769231 , 4344.1025641 , 4385.64102564 , 4192.30769231 , 4335.8974359 , 4536.41025641 , 4385.12820513 , 4173.84615385 , 4353.33333333 , 3818.46153846 , 3809.74358974 , 4289.23076923 , 4158.46153846 , 4313.33333333 , 1659.0 , 1698.0 , 13.314 , 0.0 , 0.0 , 0.0 , 0.0 , 

111.0 , 3951.28205128 , 4343.07692308 , 4386.15384615 , 4191.28205128 , 4336.41025641 , 4535.8974359 , 4385.12820513 , 4173.84615385 , 4351.79487179 , 3818.46153846 , 3810.25641026 , 4286.66666667 , 4160.0 , 4313.84615385 , 1659.0 , 1698.0 , 13.314 , 0.0 , 0.0 , 0.0 , 0.0 , 

112.0 , 3950.76923077 , 4344.61538462 , 4384.1025641 , 4191.79487179 , 4333.84615385 , 4535.8974359 , 4385.12820513 , 4173.33333333 , 4353.33333333 , 3818.46153846 , 3808.71794872 , 4284.61538462 , 4162.05128205 , 4311.28205128 , 1659.0 , 1698.0 , 13.329 , 0.0 , 0.0 , 0.0 , 0.0 , 

113.0 , 3952.30769231 , 4345.12820513 , 4383.58974359 , 4191.28205128 , 4337.43589744 , 4535.8974359 , 4385.64102564 , 4173.33333333 , 4353.84615385 , 3818.46153846 , 3807.69230769 , 4285.64102564 , 4162.56410256 , 4309.74358974 , 1660.0 , 1697.0 , 13.329 , 0.0 , 0.0 , 0.0 , 0.0 , 

114.0 , 3952.30769231 , 4345.64102564 , 4385.64102564 , 4190.76923077 , 4340.0 , 4536.41025641 , 4384.1025641 , 4172.30769231 , 4351.79487179 , 3818.46153846 , 3807.69230769 , 4285.64102564 , 4165.64102564 , 4312.30769231 , 1658.0 , 1699.0 , 13.345 , 0.0 , 0.0 , 0.0 , 0.0 , 

115.0 , 3952.30769231 , 4349.74358974 , 4385.12820513 , 4190.25641026 , 4335.8974359 , 4534.87179487 , 4382.56410256 , 4172.82051282 , 4352.30769231 , 3818.46153846 , 3808.71794872 , 4285.64102564 , 4167.69230769 , 4313.33333333 , 1660.0 , 1698.0 , 13.345 , 0.0 , 0.0 , 0.0 , 0.0 , 

116.0 , 3952.82051282 , 4353.33333333 , 4382.56410256 , 4190.76923077 , 4333.84615385 , 4533.84615385 , 4382.56410256 , 4173.33333333 , 4352.82051282 , 3818.46153846 , 3807.69230769 , 4286.66666667 , 4165.64102564 , 4312.30769231 , 1658.0 , 1699.0 , 13.36 , 0.0 , 0.0 , 0.0 , 0.0 , 

117.0 , 3952.82051282 , 4355.38461538 , 4382.05128205 , 4192.82051282 , 4337.94871795 , 4534.87179487 , 4383.58974359 , 4172.30769231 , 4352.82051282 , 3818.46153846 , 3806.66666667 , 4286.15384615 , 4164.1025641 , 4313.84615385 , 1660.0 , 1699.0 , 13.36 , 0.0 , 0.0 , 0.0 , 0.0 , 

118.0 , 3953.84615385 , 4356.41025641 , 4381.53846154 , 4191.28205128 , 4336.41025641 , 4534.35897436 , 4384.1025641 , 4173.33333333 , 4353.84615385 , 3818.46153846 , 3807.69230769 , 4286.15384615 , 4166.66666667 , 4313.84615385 , 1659.0 , 1698.0 , 13.376 , 0.0 , 0.0 , 0.0 , 0.0 , 

119.0 , 3954.87179487 , 4356.41025641 , 4381.02564103 , 4190.25641026 , 4331.79487179 , 4533.84615385 , 4381.53846154 , 4173.84615385 , 4350.76923077 , 3818.46153846 , 3807.69230769 , 4286.66666667 , 4167.17948718 , 4309.74358974 , 1659.0 , 1698.0 , 13.376 , 0.0 , 0.0 , 0.0 , 0.0 , 

120.0 , 3954.87179487 , 4356.92307692 , 4381.02564103 , 4190.76923077 , 4333.84615385 , 4535.38461538 , 4382.05128205 , 4171.28205128 , 4349.74358974 , 3818.46153846 , 3808.20512821 , 4286.15384615 , 4168.20512821 , 4310.25641026 , 1659.0 , 1698.0 , 13.392 , 0.0 , 0.0 , 0.0 , 0.0 , 

121.0 , 3954.35897436 , 4356.92307692 , 4382.56410256 , 4188.20512821 , 4335.8974359 , 4536.41025641 , 4383.07692308 , 4170.76923077 , 4352.82051282 , 3818.46153846 , 3809.23076923 , 4285.64102564 , 4167.69230769 , 4311.28205128 , 1659.0 , 1698.0 , 13.392 , 0.0 , 0.0 , 0.0 , 0.0 , 

122.0 , 3954.35897436 , 4357.94871795 , 4383.07692308 , 4189.23076923 , 4334.87179487 , 4532.30769231 , 4381.02564103 , 4172.82051282 , 4352.82051282 , 3818.46153846 , 3809.74358974 , 4285.64102564 , 4167.17948718 , 4309.74358974 , 1659.0 , 1698.0 , 13.407 , 0.0 , 0.0 , 0.0 , 0.0 , 

123.0 , 3954.87179487 , 4358.97435897 , 4384.1025641 , 4192.82051282 , 4332.82051282 , 4532.30769231 , 4381.53846154 , 4173.84615385 , 4351.28205128 , 3818.46153846 , 3808.71794872 , 4285.64102564 , 4166.15384615 , 4309.23076923 , 1659.0 , 1698.0 , 13.407 , 0.0 , 0.0 , 0.0 , 0.0 , 

124.0 , 3956.92307692 , 4358.46153846 , 4382.05128205 , 4191.28205128 , 4332.30769231 , 4533.84615385 , 4382.05128205 , 4172.82051282 , 4353.84615385 , 3818.46153846 , 3808.71794872 , 4285.64102564 , 4167.17948718 , 4309.23076923 , 1659.0 , 1697.0 , 13.423 , 0.0 , 0.0 , 0.0 , 0.0 , 

125.0 , 3958.97435897 , 4359.48717949 , 4381.02564103 , 4188.71794872 , 4332.82051282 , 4530.25641026 , 4378.97435897 , 4174.35897436 , 4355.38461538 , 3818.46153846 , 3810.25641026 , 4285.64102564 , 4166.15384615 , 4306.66666667 , 1659.0 , 1699.0 , 13.423 , 0.0 , 0.0 , 0.0 , 0.0 , 

126.0 , 3959.48717949 , 4366.15384615 , 4382.56410256 , 4190.76923077 , 4332.82051282 , 4524.61538462 , 4379.48717949 , 4175.8974359 , 4352.30769231 , 3818.46153846 , 3809.23076923 , 4286.15384615 , 4165.64102564 , 4306.15384615 , 1659.0 , 1697.0 , 13.438 , 0.0 , 0.0 , 0.0 , 0.0 , 

127.0 , 3960.51282051 , 4368.71794872 , 4382.05128205 , 4190.76923077 , 4333.33333333 , 4529.23076923 , 4384.61538462 , 4174.35897436 , 4350.76923077 , 3818.46153846 , 3808.71794872 , 4287.17948718 , 4163.58974359 , 4306.66666667 , 1659.0 , 1698.0 , 13.438 , 0.0 , 0.0 , 0.0 , 0.0 , 

128.0 , 3958.97435897 , 4368.20512821 , 4381.53846154 , 4190.76923077 , 4333.84615385 , 4533.33333333 , 4382.56410256 , 4173.33333333 , 4352.82051282 , 3818.46153846 , 3809.23076923 , 4286.15384615 , 4162.05128205 , 4305.64102564 , 1659.0 , 1699.0 , 13.454 , 0.0 , 0.0 , 0.0 , 0.0 , 

0.0 , 3962.05128205 , 4370.25641026 , 4384.61538462 , 4192.82051282 , 4333.33333333 , 4526.66666667 , 4377.94871795 , 4174.35897436 , 4353.33333333 , 3818.46153846 , 3808.20512821 , 4284.61538462 , 4157.43589744 , 4306.15384615 , 1659.0 , 1697.0 , 13.454 , 0.0 , 0.0 , 0.0 , 0.0 , 

1.0 , 3966.15384615 , 4371.28205128 , 4384.61538462 , 4190.76923077 , 4331.79487179 , 4526.15384615 , 4380.0 , 4173.33333333 , 4351.79487179 , 3818.46153846 , 3807.69230769 , 4284.61538462 , 4154.87179487 , 4307.17948718 , 1659.0 , 1699.0 , 13.47 , 0.0 , 0.0 , 0.0 , 0.0 , 

2.0 , 3966.66666667 , 4372.82051282 , 4380.51282051 , 4189.74358974 , 4334.35897436 , 4530.76923077 , 4384.1025641 , 4172.30769231 , 4351.28205128 , 3818.46153846 , 3809.74358974 , 4284.61538462 , 4149.74358974 , 4306.15384615 , 1659.0 , 1698.0 , 13.47 , 0.0 , 0.0 , 0.0 , 0.0 , 

3.0 , 3966.66666667 , 4374.35897436 , 4383.07692308 , 4191.79487179 , 4335.38461538 , 4531.79487179 , 4383.58974359 , 4172.82051282 , 4353.33333333 , 3818.46153846 , 3809.23076923 , 4284.61538462 , 4141.02564103 , 4303.58974359 , 1659.0 , 1698.0 , 13.485 , 0.0 , 0.0 , 0.0 , 0.0 , 

4.0 , 3967.69230769 , 4373.33333333 , 4387.17948718 , 4191.28205128 , 4332.30769231 , 4535.38461538 , 4381.53846154 , 4170.76923077 , 4353.84615385 , 3818.46153846 , 3806.66666667 , 4285.64102564 , 4136.92307692 , 4303.07692308 , 1659.0 , 1698.0 , 13.485 , 0.0 , 0.0 , 0.0 , 0.0 , 

5.0 , 3968.20512821 , 4373.33333333 , 4383.58974359 , 4188.71794872 , 4333.33333333 , 4537.43589744 , 4381.53846154 , 4169.74358974 , 4352.82051282 , 3818.46153846 , 3806.15384615 , 4285.64102564 , 4134.87179487 , 4305.64102564 , 1659.0 , 1702.0 , 13.501 , 0.0 , 0.0 , 0.0 , 0.0 , 

6.0 , 3971.28205128 , 4373.84615385 , 4381.53846154 , 4189.23076923 , 4335.8974359 , 4530.76923077 , 4383.07692308 , 4171.79487179 , 4351.28205128 , 3818.46153846 , 3805.64102564 , 4285.64102564 , 4138.97435897 , 4306.15384615 , 1663.0 , 1702.0 , 13.501 , 0.0 , 0.0 , 0.0 , 0.0 , 

7.0 , 3975.8974359 , 4366.66666667 , 4384.1025641 , 4191.28205128 , 4333.84615385 , 4529.23076923 , 4384.1025641 , 4173.33333333 , 4351.79487179 , 3818.46153846 , 3805.12820513 , 4285.64102564 , 4146.15384615 , 4304.61538462 , 1660.0 , 1702.0 , 13.516 , 0.0 , 0.0 , 0.0 , 0.0 , 

8.0 , 3976.92307692 , 4357.43589744 , 4383.07692308 , 4188.71794872 , 4331.28205128 , 4531.28205128 , 4381.53846154 , 4170.76923077 , 4352.30769231 , 3818.46153846 , 3805.64102564 , 4285.12820513 , 4160.0 , 4304.61538462 , 1656.0 , 1698.0 , 13.516 , 0.0 , 0.0 , 0.0 , 0.0 , 

9.0 , 3976.92307692 , 4349.23076923 , 4378.97435897 , 4186.66666667 , 4335.38461538 , 4528.20512821 , 4378.97435897 , 4171.28205128 , 4352.30769231 , 3818.46153846 , 3806.66666667 , 4285.12820513 , 4166.15384615 , 4303.58974359 , 1653.0 , 1696.0 , 13.532 , 0.0 , 0.0 , 0.0 , 0.0 , 

10.0 , 3981.02564103 , 4330.76923077 , 4378.97435897 , 4188.71794872 , 4337.43589744 , 4529.23076923 , 4380.51282051 , 4172.30769231 , 4352.30769231 , 3818.46153846 , 3806.66666667 , 4285.12820513 , 4175.38461538 , 4303.07692308 , 1657.0 , 1700.0 , 13.532 , 0.0 , 0.0 , 0.0 , 0.0 , 

11.0 , 3983.07692308 , 4292.82051282 , 4383.58974359 , 4188.71794872 , 4336.92307692 , 4530.76923077 , 4383.07692308 , 4171.28205128 , 4352.30769231 , 3817.94871795 , 3804.1025641 , 4282.56410256 , 4216.41025641 , 4303.07692308 , 1657.0 , 1701.0 , 13.548 , 0.0 , 0.0 , 0.0 , 0.0 , 

12.0 , 3981.53846154 , 4292.30769231 , 4377.94871795 , 4186.15384615 , 4337.43589744 , 4530.25641026 , 4380.0 , 4170.25641026 , 4352.82051282 , 3817.94871795 , 3802.56410256 , 4281.53846154 , 4255.38461538 , 4306.66666667 , 1657.0 , 1701.0 , 13.548 , 0.0 , 0.0 , 0.0 , 0.0 , 

13.0 , 3989.23076923 , 4336.41025641 , 4379.48717949 , 4191.28205128 , 4338.97435897 , 4536.41025641 , 4385.12820513 , 4182.56410256 , 4362.05128205 , 3827.69230769 , 3808.20512821 , 4295.38461538 , 4151.28205128 , 4316.41025641 , 1652.0 , 1696.0 , 13.563 , 0.0 , 0.0 , 0.0 , 0.0 , 

14.0 , 3989.23076923 , 4343.07692308 , 4384.61538462 , 4188.71794872 , 4335.38461538 , 4534.87179487 , 4388.71794872 , 4194.35897436 , 4372.82051282 , 3839.48717949 , 3813.84615385 , 4301.53846154 , 4175.38461538 , 4317.43589744 , 1652.0 , 1693.0 , 13.563 , 0.0 , 0.0 , 0.0 , 0.0 , 

15.0 , 3998.97435897 , 4334.35897436 , 4390.76923077 , 4192.30769231 , 4337.43589744 , 4533.33333333 , 4394.87179487 , 4153.33333333 , 4340.0 , 3798.97435897 , 3787.69230769 , 4280.0 , 4060.0 , 4302.05128205 , 1654.0 , 1688.0 , 13.579 , 0.0 , 0.0 , 0.0 , 0.0 , 

16.0 , 4080.0 , 4418.46153846 , 4467.69230769 , 4242.05128205 , 4360.51282051 , 4568.71794872 , 4432.30769231 , 4187.17948718 , 4357.94871795 , 3818.46153846 , 3813.84615385 , 4318.97435897 , 3246.66666667 , 4331.79487179 , 1653.0 , 1689.0 , 13.579 , 0.0 , 0.0 , 0.0 , 0.0 , 

17.0 , 4198.46153846 , 4545.12820513 , 4597.43589744 , 4308.71794872 , 4394.87179487 , 4622.56410256 , 4487.17948718 , 4281.02564103 , 4427.69230769 , 3882.56410256 , 3869.74358974 , 4400.51282051 , 2133.84615385 , 4376.41025641 , 1655.0 , 1688.0 , 13.594 , 0.0 , 0.0 , 0.0 , 0.0 , 

18.0 , 4234.87179487 , 4577.94871795 , 4608.71794872 , 4323.58974359 , 4405.12820513 , 4631.28205128 , 4500.51282051 , 4085.12820513 , 4253.33333333 , 3673.84615385 , 3727.69230769 , 4291.28205128 , 1471.79487179 , 4296.92307692 , 1664.0 , 1693.0 , 13.594 , 0.0 , 0.0 , 0.0 , 0.0 , 

19.0 , 4159.48717949 , 4514.87179487 , 4505.64102564 , 4289.23076923 , 4380.51282051 , 4595.8974359 , 4467.69230769 , 3806.15384615 , 3998.46153846 , 3434.87179487 , 3560.51282051 , 4097.43589744 , 1648.20512821 , 4220.51282051 , 1667.0 , 1687.0 , 13.61 , 0.0 , 0.0 , 0.0 , 0.0 , 

20.0 , 4052.30769231 , 4447.17948718 , 4469.23076923 , 4260.0 , 4360.51282051 , 4573.33333333 , 4441.53846154 , 3923.58974359 , 4083.58974359 , 3598.46153846 , 3674.87179487 , 4127.69230769 , 2358.97435897 , 4320.0 , 1663.0 , 1692.0 , 13.61 , 0.0 , 0.0 , 0.0 , 0.0 , 

21.0 , 3965.12820513 , 4395.8974359 , 4474.35897436 , 4230.76923077 , 4352.30769231 , 4562.05128205 , 4419.48717949 , 4147.69230769 , 4277.94871795 , 3828.20512821 , 3822.56410256 , 4238.46153846 , 3187.17948718 , 4392.82051282 , 1658.0 , 1695.0 , 13.626 , 0.0 , 0.0 , 0.0 , 0.0 , 

